    Step 	 temperature 	 pressure 	 Potential Energy 	 Kinetic Energy 	 Sum Energy

       0	 2.61982	 1.19022	        -5646.82	         3933.33	        -1713.49
       1	 2.60501	 1.27256	         -5624.8	         3911.12	        -1713.68
       2	 2.55964	 1.52349	        -5557.11	         3843.06	        -1714.05
       3	  2.4813	 1.95126	        -5440.11	         3725.56	        -1714.55
       4	 2.36742	 2.56339	        -5269.68	         3554.73	        -1714.94
       5	 2.21783	 3.35508	        -5045.07	         3330.35	        -1714.72
       6	 2.03949	 4.28829	         -4776.1	         3062.83	        -1713.27
       7	 1.85098	 5.27026	        -4490.71	         2780.08	        -1710.64
       8	 1.68042	 6.16277	        -4232.32	         2524.23	        -1708.09
       9	 1.55386	 6.83815	        -4041.31	         2334.39	        -1706.92
      10	 1.48373	  7.2353	        -3936.48	         2229.19	        -1707.28
      11	 1.46681	 7.36807	        -3912.35	         2203.82	        -1708.52
      12	  1.4901	 7.29723	         -3948.7	         2238.75	        -1709.95
      13	 1.53774	  7.0978	        -4021.37	         2310.22	        -1711.15
      14	 1.59574	 6.83739	        -4109.19	         2397.21	        -1711.98
      15	 1.65378	 6.56693	        -4196.74	         2484.27	        -1712.47
      16	 1.70542	  6.3196	         -4274.4	         2561.73	        -1712.68
      17	 1.74751	 6.11282	        -4337.53	         2624.87	        -1712.66
      18	 1.77965	  5.9508	        -4385.53	         2673.08	        -1712.45
      19	 1.80362	 5.82676	        -4421.14	         2709.03	        -1712.11
      20	  1.8227	  5.7262	         -4449.4	         2737.65	        -1711.76
      21	 1.84048	 5.63281	        -4475.85	         2764.32	        -1711.52
      22	 1.85945	 5.53514	        -4504.26	         2792.77	        -1711.49
      23	 1.88021	 5.43038	        -4535.53	         2823.91	        -1711.62
      24	 1.90191	 5.32271	        -4568.23	         2856.46	        -1711.77
      25	 1.92339	 5.21762	        -4600.52	         2888.69	        -1711.83
      26	 1.94427	 5.11704	        -4631.79	         2920.01	        -1711.78
      27	 1.96522	 5.01809	         -4663.1	         2951.43	        -1711.67
      28	 1.98729	 4.91594	        -4696.22	         2984.54	        -1711.68
      29	 2.01029	 4.81149	        -4731.01	         3019.03	        -1711.98
      30	 2.03154	 4.71745	        -4763.32	         3050.92	        -1712.41
      31	 2.04741	  4.6515	        -4787.33	         3074.72	        -1712.61
      32	 2.05614	 4.62195	        -4800.33	         3087.82	        -1712.52
      33	  2.0585	 4.62464	         -4803.8	         3091.35	        -1712.45
      34	 2.05527	 4.65561	        -4799.05	         3086.51	        -1712.54
      35	 2.04642	 4.71546	        -4785.75	         3073.24	        -1712.51
      36	 2.03273	 4.79996	        -4765.06	         3052.69	        -1712.37
      37	 2.01597	 4.89961	        -4739.83	         3027.56	        -1712.27
      38	 1.99793	 5.00546	        -4712.66	         3000.49	        -1712.17
      39	 1.98062	 5.10746	        -4686.44	         2974.53	        -1711.91
      40	  1.9671	 5.19038	        -4665.87	         2954.25	        -1711.62
      41	 1.96042	 5.23897	        -4655.75	         2944.23	        -1711.52
      42	 1.96177	 5.24737	        -4657.86	         2946.26	         -1711.6
      43	 1.97038	 5.21923	        -4670.93	         2959.18	        -1711.75
      44	 1.98437	 5.16341	        -4692.12	         2980.15	        -1711.97
      45	 2.00116	 5.09234	        -4717.53	         3005.34	        -1712.19
      46	 2.01816	  5.0189	        -4743.16	         3030.84	        -1712.32
      47	 2.03351	 4.95232	        -4766.27	         3053.87	         -1712.4
      48	 2.04594	 4.89911	        -4785.03	         3072.51	        -1712.52
      49	 2.05407	 4.86634	        -4797.37	         3084.71	        -1712.66
      50	 2.05673	 4.86023	        -4801.39	         3088.69	         -1712.7
      51	 2.05384	  4.8814	        -4796.98	         3084.36	        -1712.62
      52	 2.04656	 4.92431	        -4785.96	         3073.44	        -1712.52
      53	 2.03664	 4.98069	        -4770.93	         3058.56	        -1712.37
      54	 2.02652	 5.03912	        -4755.49	         3043.38	        -1712.11
      55	 2.01924	 5.08467	         -4744.4	         3032.46	        -1711.94
      56	 2.01666	 5.10787	        -4740.65	         3028.59	        -1712.06
      57	 2.01802	 5.11219	        -4742.93	         3030.63	         -1712.3
      58	  2.0211	 5.10783	        -4747.74	         3035.25	        -1712.49
      59	 2.02397	 5.10361	        -4752.13	         3039.56	        -1712.57
      60	 2.02594	 5.10297	           -4755	         3042.51	        -1712.49
      61	 2.02757	 5.10314	        -4757.37	         3044.96	        -1712.41
      62	 2.02949	 5.10112	        -4760.29	         3047.84	        -1712.45
      63	 2.03127	 5.09919	        -4763.04	          3050.5	        -1712.53
      64	 2.03198	 5.10175	        -4764.13	         3051.58	        -1712.55
      65	 2.03124	 5.11069	        -4762.95	         3050.46	        -1712.49
      66	 2.02932	 5.12474	        -4759.98	         3047.58	         -1712.4
      67	 2.02695	 5.14072	        -4756.35	         3044.02	        -1712.33
      68	 2.02465	 5.15625	        -4752.93	         3040.58	        -1712.35
      69	 2.02228	 5.17223	        -4749.46	         3037.02	        -1712.45
      70	  2.0191	 5.19216	         -4744.8	         3032.25	        -1712.55
      71	 2.01451	 5.21901	        -4737.95	         3025.37	        -1712.58
      72	 2.00867	 5.25204	        -4729.11	         3016.61	         -1712.5
      73	 2.00281	 5.28543	        -4720.17	         3007.82	        -1712.35
      74	 1.99878	 5.31042	        -4713.99	         3001.77	        -1712.22
      75	 1.99793	 5.32026	        -4712.75	         3000.49	        -1712.26
      76	 1.99983	  5.3166	        -4715.84	         3003.34	         -1712.5
      77	 2.00222	 5.31007	        -4719.66	         3006.93	        -1712.73
      78	 2.00277	 5.31141	        -4720.57	         3007.76	        -1712.81
      79	 2.00041	 5.32543	        -4716.97	         3004.22	        -1712.75
      80	 1.99574	 5.34951	        -4709.71	          2997.2	        -1712.51
      81	 1.99095	 5.37341	        -4702.27	         2990.02	        -1712.25
      82	  1.9883	  5.3864	        -4698.27	         2986.05	        -1712.22
      83	 1.98818	 5.38693	        -4698.23	         2985.87	        -1712.36
      84	 1.98946	 5.38066	        -4700.25	         2987.79	        -1712.45
      85	 1.99143	 5.37124	        -4703.11	         2990.75	        -1712.36
      86	 1.99489	 5.35504	        -4708.13	         2995.94	        -1712.19
      87	 2.00124	 5.32554	        -4717.63	         3005.46	        -1712.17
      88	 2.01038	 5.28337	        -4731.57	         3019.18	        -1712.39
      89	 2.02006	 5.23962	         -4746.4	         3033.69	         -1712.7
      90	   2.027	 5.20985	        -4757.03	          3044.1	        -1712.94
      91	 2.02871	  5.2058	        -4759.64	         3046.67	        -1712.97
      92	 2.02468	 5.22971	        -4753.44	         3040.62	        -1712.82
      93	 2.01626	  5.2748	        -4740.61	         3027.99	        -1712.61
      94	 2.00555	 5.33078	        -4724.38	         3011.93	        -1712.45
      95	  1.9944	  5.3886	        -4707.56	          2995.2	        -1712.36
      96	 1.98408	 5.44191	        -4692.05	         2979.72	        -1712.32
      97	 1.97534	 5.48681	        -4678.93	         2966.61	        -1712.32
      98	  1.9686	  5.5211	         -4668.8	          2956.5	        -1712.31
      99	 1.96427	 5.54273	        -4662.27	         2950.01	        -1712.26
     100	 1.96294	 5.54884	        -4660.25	         2948.02	        -1712.23
     101	 1.96482	 5.53835	        -4663.14	         2950.83	        -1712.31
     102	 1.96924	 5.51465	        -4669.86	         2957.47	        -1712.39
     103	 1.97537	  5.4822	        -4679.04	         2966.65	        -1712.39
     104	 1.98271	 5.44316	        -4690.11	         2977.67	        -1712.44
     105	 1.99044	  5.4016	        -4701.84	         2989.26	        -1712.57
     106	 1.99724	 5.36424	        -4712.05	         2999.46	        -1712.59
     107	 2.00273	 5.33311	        -4720.15	          3007.7	        -1712.45
     108	 2.00803	 5.30301	        -4727.91	         3015.65	        -1712.26
     109	 2.01476	 5.26653	        -4737.89	         3025.74	        -1712.15
     110	 2.02385	 5.21947	        -4751.54	         3039.37	        -1712.17
     111	 2.03497	 5.16356	        -4768.38	         3056.05	        -1712.32
     112	  2.0464	 5.10703	        -4785.76	          3073.2	        -1712.56
     113	 2.05562	 5.06178	        -4799.78	         3087.03	        -1712.75
     114	  2.0605	 5.03774	        -4807.15	         3094.35	         -1712.8
     115	 2.06035	 5.03802	         -4806.8	         3094.12	        -1712.68
     116	 2.05624	 5.05736	         -4800.4	         3087.96	        -1712.45
     117	 2.05043	 5.08492	        -4791.45	         3079.25	         -1712.2
     118	 2.04541	 5.10906	        -4783.72	         3071.72	        -1712.01
     119	   2.043	 5.12105	        -4780.08	          3068.1	        -1711.97
     120	 2.04343	 5.11972	        -4780.87	         3068.74	        -1712.13
     121	 2.04531	 5.11189	        -4783.86	         3071.57	         -1712.3
     122	 2.04702	 5.10553	         -4786.5	         3074.13	        -1712.37
     123	 2.04763	 5.10503	        -4787.48	         3075.05	        -1712.43
     124	 2.04632	 5.11424	        -4785.67	         3073.09	        -1712.58
     125	 2.04184	 5.13928	        -4779.08	         3066.36	        -1712.72
     126	 2.03326	 5.18457	         -4766.2	         3053.49	         -1712.7
     127	 2.02119	 5.24713	        -4747.87	         3035.38	        -1712.49
     128	 2.00809	 5.31499	        -4727.92	         3015.74	        -1712.18
     129	 1.99721	 5.37238	        -4711.42	         2999.42	           -1712
     130	 1.99051	 5.40962	        -4701.44	         2989.37	        -1712.07
     131	 1.98773	 5.42791	        -4697.44	         2985.19	        -1712.25
     132	 1.98729	 5.43435	        -4696.97	         2984.54	        -1712.42
     133	 1.98739	 5.43714	        -4697.27	         2984.69	        -1712.58
     134	 1.98657	 5.44315	        -4696.04	         2983.45	        -1712.59
     135	 1.98484	  5.4524	        -4693.25	         2980.86	        -1712.39
     136	 1.98392	  5.4566	        -4691.68	         2979.49	        -1712.19
     137	 1.98558	 5.44731	        -4694.15	         2981.97	        -1712.18
     138	 1.99004	 5.42381	        -4700.95	         2988.67	        -1712.28
     139	 1.99659	 5.39014	        -4710.78	         2998.48	         -1712.3
     140	 2.00489	 5.34817	         -4723.2	         3010.93	        -1712.26
     141	 2.01486	 5.29853	        -4738.24	         3025.89	        -1712.36
     142	 2.02531	 5.24723	        -4754.18	         3041.57	        -1712.61
     143	 2.03371	 5.20678	        -4767.03	         3054.17	        -1712.86
     144	 2.03749	  5.1896	        -4772.79	         3059.83	        -1712.96
     145	 2.03542	 5.20135	        -4769.66	         3056.74	        -1712.92
     146	 2.02773	 5.24072	        -4758.04	          3045.2	        -1712.84
     147	 2.01527	 5.30316	        -4739.31	         3026.51	         -1712.8
     148	 1.99899	 5.38372	        -4714.84	         3002.09	        -1712.75
     149	 1.98025	 5.47557	        -4686.55	         2973.97	        -1712.58
     150	 1.96156	 5.56624	        -4658.22	         2945.94	        -1712.28
     151	 1.94653	 5.63813	        -4635.38	          2923.4	        -1711.98
     152	  1.9386	 5.67471	        -4623.32	         2911.51	        -1711.81
     153	 1.93986	 5.66609	        -4625.23	          2913.4	        -1711.83
     154	 1.94993	 5.61372	        -4640.68	          2928.5	        -1712.18
     155	 1.96529	 5.53456	        -4664.15	         2951.54	        -1712.61
     156	 1.98155	 5.45029	        -4688.61	         2975.92	        -1712.69
     157	 1.99681	 5.37016	        -4711.36	         2998.82	        -1712.54
     158	 2.01119	 5.29385	        -4732.93	         3020.38	        -1712.55
     159	 2.02385	 5.22592	        -4752.13	         3039.38	        -1712.75
     160	 2.03263	 5.17761	        -4765.44	         3052.55	         -1712.9
     161	 2.03593	 5.15668	        -4770.35	          3057.5	        -1712.86
     162	 2.03401	  5.1618	        -4767.31	         3054.61	        -1712.69
     163	 2.02866	 5.18444	        -4759.06	          3046.6	        -1712.46
     164	 2.02243	  5.2124	        -4749.53	         3037.24	        -1712.28
     165	  2.0173	 5.23573	        -4741.83	         3029.55	        -1712.28
     166	 2.01371	 5.25213	        -4736.55	         3024.17	        -1712.38
     167	 2.01107	 5.26421	        -4732.65	          3020.2	        -1712.45
     168	 2.00883	 5.27424	        -4729.34	         3016.85	        -1712.49
     169	 2.00694	 5.28283	        -4726.47	         3014.01	        -1712.46
     170	 2.00574	 5.28823	        -4724.69	          3012.2	        -1712.49
     171	 2.00483	 5.29204	        -4723.52	         3010.84	        -1712.68
     172	 2.00276	 5.30169	        -4720.43	         3007.74	        -1712.69
     173	 1.99914	  5.3186	        -4714.86	         3002.31	        -1712.55
     174	 1.99516	 5.33716	        -4708.66	         2996.34	        -1712.32
     175	 1.99308	  5.3472	        -4705.22	         2993.22	           -1712
     176	 1.99531	 5.33696	         -4708.5	         2996.57	        -1711.93
     177	 2.00211	  5.3054	        -4718.87	         3006.76	         -1712.1
     178	 2.01164	 5.26152	        -4733.27	         3021.06	        -1712.21
     179	 2.02225	 5.21291	         -4749.2	         3036.97	        -1712.22
     180	 2.03321	 5.16277	        -4765.62	         3053.42	         -1712.2
     181	 2.04425	 5.11244	        -4782.19	         3069.98	        -1712.21
     182	 2.05477	  5.0648	        -4798.08	         3085.76	        -1712.32
     183	  2.0634	 5.02651	         -4811.2	         3098.71	         -1712.5
     184	 2.06837	 5.00624	        -4818.78	         3106.15	        -1712.62
     185	 2.06835	 5.01016	        -4818.78	         3106.13	        -1712.64
     186	 2.06318	 5.03889	        -4810.93	         3098.37	        -1712.56
     187	 2.05382	 5.08733	        -4796.73	         3084.34	        -1712.39
     188	  2.0423	 5.14556	        -4779.17	         3067.05	        -1712.12
     189	 2.03164	 5.19883	        -4762.85	         3051.07	        -1711.78
     190	 2.02525	 5.23062	        -4753.06	         3041.48	        -1711.59
     191	   2.025	  5.2317	         -4752.8	         3041.11	        -1711.69
     192	 2.03006	 5.20643	        -4760.67	          3048.7	        -1711.97
     193	  2.0378	 5.16785	        -4772.54	          3060.3	        -1712.24
     194	 2.04549	 5.12935	        -4784.28	         3071.84	        -1712.44
     195	 2.05106	 5.10123	        -4792.81	         3080.19	        -1712.62
     196	 2.05273	 5.09218	        -4795.49	          3082.7	        -1712.79
     197	 2.04918	 5.10889	         -4790.2	         3077.37	        -1712.84
     198	 2.04037	 5.15149	        -4776.88	         3064.16	        -1712.72
     199	  2.0278	 5.21247	        -4757.86	         3045.31	        -1712.56
     200	 2.01352	 5.28157	        -4736.33	         3023.88	        -1712.45
     201	 1.99927	 5.35004	        -4714.87	         3002.51	        -1712.36
     202	 1.98681	 5.40935	        -4695.98	         2983.81	        -1712.17
     203	 1.97853	 5.44771	        -4683.32	         2971.39	        -1711.92
     204	 1.97704	 5.45259	        -4680.93	         2969.17	        -1711.76
     205	 1.98395	 5.41659	        -4691.31	         2979.52	        -1711.79
     206	 1.99856	   5.343	        -4713.55	         3001.44	        -1712.11
     207	 2.01722	 5.24962	        -4742.04	         3029.44	         -1712.6
     208	 2.03454	 5.16262	        -4768.47	         3055.42	        -1713.05
     209	 2.04547	 5.10637	        -4785.14	         3071.81	        -1713.33
     210	 2.04679	 5.09661	        -4787.16	         3073.79	        -1713.37
     211	 2.03798	 5.13643	        -4773.75	         3060.57	        -1713.18
     212	  2.0211	 5.21632	        -4748.12	         3035.25	        -1712.87
     213	 1.99962	 5.31978	        -4715.62	         3003.04	        -1712.59
     214	 1.97726	 5.42937	        -4681.75	         2969.49	        -1712.26
     215	 1.95809	 5.52559	        -4652.59	         2940.74	        -1711.86
     216	 1.94624	 5.58794	        -4634.63	         2922.96	        -1711.67
     217	 1.94361	 5.60664	        -4630.88	         2919.01	        -1711.86
     218	 1.94864	 5.58893	        -4638.77	         2926.56	        -1712.21
     219	 1.95794	  5.5507	        -4653.03	         2940.52	        -1712.51
     220	 1.96823	 5.50727	        -4668.69	         2955.95	        -1712.74
     221	 1.97688	 5.47102	        -4681.82	         2968.92	         -1712.9
     222	 1.98239	 5.44952	        -4690.05	         2977.19	        -1712.86
     223	 1.98546	 5.44028	        -4694.36	         2981.79	        -1712.57
     224	 1.98845	 5.43173	        -4698.79	         2986.28	        -1712.51
     225	  1.9916	 5.42242	        -4703.89	         2991.01	        -1712.88
     226	  1.9921	 5.42687	        -4704.75	         2991.75	           -1713
     227	 1.98877	 5.45068	        -4699.46	         2986.76	        -1712.69
     228	 1.98407	 5.48191	        -4692.02	          2979.7	        -1712.31
     229	 1.98134	 5.50457	        -4687.81	         2975.62	        -1712.19
     230	 1.98185	 5.51291	        -4688.75	         2976.38	        -1712.36
     231	 1.98399	 5.51444	        -4692.28	         2979.59	        -1712.69
     232	 1.98459	  5.5237	        -4693.46	         2980.49	        -1712.97
     233	 1.98089	 5.55334	        -4687.95	         2974.93	        -1713.02
     234	 1.97242	 5.60512	        -4674.99	         2962.22	        -1712.76
     235	 1.96152	 5.66734	        -4658.26	         2945.89	        -1712.37
     236	 1.95202	 5.72163	        -4643.68	         2931.64	        -1712.04
     237	 1.94702	 5.75286	         -4636.1	         2924.13	        -1711.97
     238	 1.94734	 5.75697	        -4636.68	         2924.62	        -1712.06
     239	 1.95218	 5.73809	        -4643.99	         2931.87	        -1712.13
     240	 1.96036	  5.7014	        -4656.39	         2944.15	        -1712.24
     241	 1.97025	 5.65466	        -4671.46	         2958.97	        -1712.49
     242	 1.97923	 5.61037	        -4685.18	         2972.44	        -1712.74
     243	 1.98477	 5.58068	         -4693.6	         2980.76	        -1712.84
     244	 1.98589	 5.57028	        -4695.17	         2982.44	        -1712.73
     245	 1.98381	 5.57349	        -4691.73	         2979.31	        -1712.42
     246	 1.98175	 5.57529	        -4688.22	         2976.22	        -1711.99
     247	 1.98382	 5.55641	        -4691.04	         2979.33	         -1711.7
     248	 1.99254	 5.50484	        -4704.25	         2992.42	        -1711.84
     249	 2.00656	 5.42726	        -4725.75	         3013.45	         -1712.3
     250	 2.02152	 5.34502	        -4748.55	         3035.88	        -1712.67
     251	 2.03351	 5.27703	        -4766.59	         3053.87	        -1712.72
     252	 2.04155	 5.22836	        -4778.44	         3065.93	        -1712.51
     253	 2.04697	 5.19299	        -4786.39	         3074.06	        -1712.33
     254	 2.05109	 5.16494	         -4792.6	         3080.24	        -1712.36
