    Step 	 temperature 	 pressure 	 Potential Energy 	 Kinetic Energy 	 Sum Energy

       0	 2.18173	-1.54907	        -3415.21	         3273.55	        -141.664
       1	 2.18182	-1.54575	        -3415.35	         3273.67	        -141.677
       2	 2.18201	-1.53563	        -3415.66	         3273.96	        -141.696
       3	 2.18216	-1.51827	        -3415.91	         3274.18	        -141.731
       4	 2.18198	-1.49286	        -3415.69	         3273.91	        -141.784
       5	 2.18103	-1.45811	        -3414.36	          3272.5	         -141.86
       6	 2.17872	-1.41227	        -3410.99	         3269.03	        -141.963
       7	 2.17421	-1.35298	        -3404.37	         3262.27	        -142.099
       8	 2.16644	-1.27727	        -3392.88	         3250.61	         -142.27
       9	 2.15409	-1.18162	        -3374.55	         3232.07	        -142.472
      10	 2.13569	-1.06225	        -3347.16	         3204.48	         -142.68
      11	 2.10991	-0.915954	        -3308.65	         3165.81	        -142.841
      12	 2.07607	-0.741678	        -3257.93	         3115.06	        -142.873
      13	  2.0349	-0.54261	           -3196	         3053.29	        -142.707
      14	   1.989	-0.327696	        -3126.81	         2984.44	        -142.365
      15	 1.94252	-0.110503	        -3056.72	         2914.73	        -141.995
      16	 1.89974	0.0950315	        -2992.31	         2850.56	        -141.754
      17	 1.86362	0.278982	        -2938.05	         2796.37	        -141.673
      18	 1.83545	0.436546	         -2895.8	         2754.12	         -141.68
      19	 1.81541	0.566362	        -2865.77	         2724.06	         -141.71
      20	 1.80319	0.668704	        -2847.48	         2705.73	         -141.75
      21	 1.79825	0.744819	        -2840.13	         2698.32	        -141.808
      22	 1.79983	0.796837	        -2842.57	         2700.69	        -141.876
      23	 1.80704	0.827517	        -2853.47	         2711.51	        -141.954
      24	  1.8188	0.840307	        -2871.24	         2729.15	        -142.088
      25	 1.83352	0.840294	        -2893.52	         2751.23	        -142.288
      26	 1.84914	0.834174	        -2917.12	         2774.66	        -142.461
      27	 1.86387	0.827876	        -2939.28	         2796.75	        -142.534
      28	 1.87679	0.824638	        -2958.68	         2816.13	        -142.544
      29	 1.88766	0.825685	        -2974.99	         2832.44	        -142.554
      30	 1.89638	 0.83175	         -2988.1	         2845.52	        -142.577
      31	 1.90286	 0.84345	        -2997.82	         2855.23	        -142.585
      32	 1.90722	0.860595	        -3004.32	         2861.77	        -142.542
      33	 1.91011	0.881387	        -3008.56	         2866.12	        -142.443
      34	 1.91265	0.902527	        -3012.28	         2869.92	        -142.359
      35	 1.91574	0.921172	        -3016.93	         2874.55	        -142.377
      36	 1.91944	0.937084	        -3022.58	         2880.11	        -142.464
      37	  1.9232	0.951915	        -3028.26	         2885.74	        -142.516
      38	 1.92665	0.966586	        -3033.42	         2890.92	        -142.495
      39	 1.93005	 0.98024	        -3038.47	         2896.01	        -142.455
      40	 1.93378	0.991561	        -3044.08	         2901.62	        -142.467
      41	 1.93784	  1.0005	        -3050.25	         2907.71	        -142.545
      42	 1.94167	 1.00864	        -3056.09	         2913.45	        -142.635
      43	 1.94467	  1.0178	        -3060.61	         2917.96	        -142.651
      44	 1.94693	 1.02786	         -3063.9	         2921.34	        -142.558
      45	 1.94937	 1.03616	        -3067.46	            2925	        -142.465
      46	 1.95278	 1.04041	        -3072.62	         2930.12	        -142.499
      47	 1.95688	  1.0417	        -3078.88	         2936.27	        -142.606
      48	 1.96065	 1.04328	        -3084.62	         2941.92	        -142.701
      49	 1.96303	 1.04815	         -3088.3	         2945.49	        -142.801
      50	 1.96313	 1.05897	        -3088.55	         2945.64	        -142.911
      51	  1.9603	  1.0776	        -3084.33	         2941.39	        -142.933
      52	 1.95503	 1.10273	        -3076.26	         2933.49	        -142.765
      53	 1.94943	 1.12795	        -3067.65	         2925.09	         -142.56
      54	 1.94584	 1.14608	        -3062.23	         2919.71	        -142.527
      55	  1.9453	  1.1543	        -3061.43	          2918.9	        -142.536
      56	 1.94783	 1.15235	        -3065.34	          2922.7	        -142.642
      57	 1.95217	 1.14373	        -3072.07	         2929.19	        -142.872
      58	 1.95606	 1.13526	        -3077.96	         2935.04	         -142.92
      59	 1.95847	 1.12986	        -3081.48	         2938.66	        -142.825
      60	 1.95971	 1.12644	        -3083.26	         2940.51	        -142.754
      61	 1.96025	 1.12369	        -3084.05	         2941.33	        -142.722
      62	 1.96044	 1.12083	        -3084.27	          2941.6	        -142.672
      63	 1.96081	  1.1164	        -3084.73	         2942.16	        -142.572
      64	 1.96236	 1.10763	        -3086.94	         2944.49	        -142.457
      65	 1.96616	 1.09157	         -3092.6	         2950.19	        -142.405
      66	 1.97265	 1.06718	        -3102.38	         2959.91	         -142.47
      67	 1.98112	 1.03675	        -3115.24	         2972.62	        -142.621
      68	 1.99005	  1.0051	         -3128.8	         2986.03	        -142.772
      69	 1.99786	0.977207	         -3140.6	         2997.74	        -142.864
      70	 2.00348	0.956418	        -3149.06	         3006.17	        -142.891
      71	  2.0065	0.944095	        -3153.58	          3010.7	        -142.888
      72	 2.00691	0.940359	        -3154.19	         3011.31	        -142.881
      73	 2.00487	0.944785	        -3151.11	         3008.25	         -142.86
      74	 2.00073	0.956264	        -3144.86	         3002.04	         -142.82
      75	   1.995	0.973097	        -3136.26	         2993.44	        -142.813
      76	 1.98794	0.994181	        -3125.72	         2982.86	        -142.861
      77	 1.97951	 1.01947	        -3113.09	         2970.21	        -142.887
      78	 1.96994	 1.04802	        -3098.65	         2955.85	        -142.795
      79	 1.96046	 1.07588	        -3084.28	         2941.64	        -142.635
      80	 1.95282	 1.09758	        -3072.73	         2930.18	        -142.551
      81	 1.94812	 1.10961	        -3065.67	         2923.12	        -142.549
      82	 1.94666	 1.11099	        -3063.49	         2920.94	        -142.545
      83	 1.94855	 1.10133	        -3066.31	         2923.78	        -142.529
      84	  1.9539	 1.08036	        -3074.29	         2931.79	        -142.499
      85	 1.96285	 1.04784	        -3087.67	         2945.22	        -142.459
      86	 1.97538	 1.00407	        -3106.53	         2964.01	        -142.513
      87	  1.9905	0.952254	        -3129.39	          2986.7	        -142.688
      88	 2.00619	0.898887	        -3153.08	         3010.23	        -142.848
      89	 2.02041	0.850361	        -3174.49	         3031.56	         -142.93
      90	 2.03177	0.810993	        -3191.59	          3048.6	        -142.989
      91	 2.03929	0.783892	        -3202.94	         3059.89	        -143.054
      92	 2.04221	0.771504	        -3207.33	         3064.26	        -143.075
      93	 2.04041	0.774274	        -3204.53	         3061.56	        -142.966
      94	 2.03514	0.788618	        -3196.37	         3053.66	        -142.711
      95	 2.02885	0.807135	        -3186.72	         3044.23	        -142.488
      96	 2.02362	0.823418	        -3178.85	         3036.38	        -142.464
      97	 2.01987	0.836161	        -3173.29	         3030.76	        -142.532
      98	 2.01702	0.846937	        -3169.04	         3026.47	        -142.571
      99	 2.01462	0.856819	        -3165.42	         3022.88	        -142.546
     100	 2.01284	 0.86525	        -3162.68	         3020.21	        -142.472
     101	 2.01222	0.870527	        -3161.72	         3019.28	        -142.432
     102	 2.01298	0.871985	        -3162.91	         3020.42	         -142.49
     103	 2.01449	0.871532	        -3165.29	         3022.68	        -142.608
     104	 2.01553	 0.87276	        -3166.97	         3024.24	        -142.725
     105	  2.0149	0.879204	        -3166.11	          3023.3	         -142.81
     106	 2.01177	0.893254	        -3161.44	          3018.6	        -142.843
     107	 2.00589	  0.9155	        -3152.59	         3009.78	        -142.809
     108	 1.99777	0.944338	        -3140.31	          2997.6	        -142.712
     109	 1.98856	0.976149	        -3126.36	         2983.79	        -142.569
     110	 1.97994	 1.00587	        -3113.25	         2970.85	        -142.399
     111	 1.97376	 1.02787	        -3103.84	         2961.58	        -142.261
     112	 1.97148	 1.03775	        -3100.39	         2958.16	        -142.225
     113	 1.97356	 1.03419	        -3103.58	         2961.28	        -142.298
     114	  1.9793	 1.01935	        -3112.35	          2969.9	        -142.447
     115	 1.98717	0.997938	        -3124.33	         2981.71	        -142.624
     116	 1.99532	0.975653	        -3136.69	         2993.93	        -142.766
     117	 2.00216	  0.9574	        -3147.04	         3004.19	        -142.849
     118	 2.00671	 0.94635	        -3153.89	            3011	        -142.881
     119	  2.0085	0.943998	        -3156.57	         3013.69	         -142.88
     120	  2.0075	0.950553	        -3155.05	          3012.2	         -142.86
     121	 2.00394	0.965345	        -3149.68	         3006.85	        -142.834
     122	 1.99816	0.987188	           -3141	         2998.19	        -142.803
     123	 1.99069	 1.01441	        -3129.73	         2986.98	        -142.751
     124	 1.98226	 1.04455	           -3117	         2974.33	         -142.67
     125	 1.97389	 1.07428	        -3104.36	         2961.79	        -142.572
     126	 1.96679	 1.09982	        -3093.61	         2951.13	        -142.477
     127	 1.96207	 1.11763	        -3086.45	         2944.05	        -142.409
     128	  1.9605	 1.12523	         -3084.1	          2941.7	        -142.402
     129	 1.96219	 1.12219	        -3086.71	         2944.22	        -142.487
     130	 1.96632	 1.11084	        -3093.05	         2950.42	        -142.627
     131	 1.97156	  1.0952	        -3101.02	         2958.29	        -142.725
     132	 1.97691	 1.07843	        -3109.03	         2966.31	        -142.718
     133	 1.98221	 1.06115	        -3116.89	         2974.26	        -142.636
     134	 1.98793	  1.0422	        -3125.42	         2982.85	        -142.573
     135	 1.99437	 1.02099	        -3135.11	          2992.5	        -142.605
     136	   2.001	0.999344	        -3145.15	         3002.44	        -142.708
     137	 2.00668	0.980922	        -3153.76	         3010.97	        -142.797
     138	 2.01041	0.968914	        -3159.37	         3016.55	        -142.816
     139	  2.0118	0.964553	        -3161.43	         3018.64	        -142.789
     140	 2.01096	0.967595	        -3160.15	         3017.38	        -142.772
     141	 2.00801	0.977688	        -3155.74	         3012.96	        -142.785
     142	 2.00293	0.994876	        -3148.14	         3005.34	        -142.802
     143	 1.99573	   1.019	        -3137.33	         2994.54	        -142.791
     144	 1.98678	 1.04882	        -3123.85	         2981.12	        -142.725
     145	 1.97701	  1.0814	        -3109.07	         2966.46	        -142.614
     146	 1.96776	 1.11251	        -3095.09	         2952.58	        -142.509
     147	 1.96034	 1.13805	        -3083.91	         2941.46	        -142.445
     148	 1.95576	 1.15507	        -3076.98	         2934.58	        -142.395
     149	 1.95472	 1.16146	        -3075.39	         2933.02	        -142.365
     150	 1.95745	 1.15646	        -3079.59	         2937.13	         -142.46
     151	 1.96297	 1.14302	         -3088.1	         2945.41	         -142.69
     152	  1.9691	 1.12775	         -3097.5	          2954.6	        -142.898
     153	 1.97375	  1.1169	        -3104.55	         2961.57	        -142.974
     154	 1.97599	 1.11323	        -3107.87	         2964.93	        -142.938
     155	 1.97601	 1.11615	        -3107.82	         2964.96	        -142.865
     156	 1.97449	 1.12361	        -3105.48	         2962.67	        -142.809
     157	  1.9721	  1.1335	        -3101.88	          2959.1	        -142.783
     158	 1.96934	 1.14421	        -3097.74	         2954.95	        -142.781
     159	 1.96653	 1.15454	        -3093.53	         2950.74	        -142.785
     160	 1.96403	 1.16329	        -3089.73	         2946.99	        -142.737
     161	 1.96272	 1.16788	        -3087.61	         2945.02	        -142.584
     162	 1.96411	  1.1637	        -3089.58	         2947.11	        -142.475
     163	 1.96897	 1.14825	        -3097.04	          2954.4	        -142.639
     164	 1.97574	 1.12631	        -3107.48	         2964.55	        -142.927
     165	 1.98171	 1.10621	        -3116.55	         2973.52	        -143.033
     166	 1.98552	 1.09214	        -3122.16	         2979.23	        -142.929
     167	 1.98766	 1.08276	        -3125.21	         2982.44	        -142.778
     168	 1.98919	 1.07506	        -3127.46	         2984.73	        -142.722
     169	 1.99055	 1.06802	        -3129.52	         2986.76	        -142.754
     170	 1.99146	 1.06264	         -3130.9	         2988.14	        -142.768
     171	 1.99173	 1.05958	        -3131.28	         2988.54	         -142.74
     172	  1.9914	 1.05859	         -3130.8	         2988.04	        -142.756
     173	 1.99018	 1.06038	        -3129.05	         2986.22	        -142.833
     174	 1.98738	 1.06692	        -3124.91	         2982.02	        -142.888
     175	 1.98253	 1.07941	         -3117.6	         2974.73	        -142.868
     176	 1.97587	 1.09682	        -3107.55	         2964.76	        -142.793
     177	  1.9683	 1.11629	         -3096.1	          2953.4	        -142.709
     178	 1.96092	 1.13436	        -3084.94	         2942.32	        -142.613
     179	 1.95505	 1.14708	        -3075.99	         2933.53	        -142.467
     180	 1.95238	  1.1495	        -3071.82	         2929.52	          -142.3
     181	 1.95456	 1.13677	           -3075	         2932.78	         -142.22
     182	 1.96223	 1.10709	         -3086.6	         2944.29	        -142.312
     183	 1.97433	 1.06387	        -3104.98	         2962.44	        -142.544
     184	 1.98839	 1.01468	        -3126.33	         2983.53	        -142.797
     185	 2.00164	0.967993	         -3146.4	         3003.41	        -142.987
     186	 2.01195	0.930398	        -3161.94	         3018.87	        -143.067
     187	 2.01843	0.904897	        -3171.58	         3028.59	        -142.993
     188	 2.02167	0.890013	        -3176.29	         3033.45	        -142.838
     189	 2.02294	0.882049	        -3178.15	         3035.36	        -142.782
     190	 2.02279	0.879586	        -3177.95	         3035.12	        -142.825
     191	 2.02086	0.883743	        -3175.08	         3032.23	        -142.856
     192	 2.01682	0.895415	        -3169.01	         3026.17	        -142.843
     193	 2.01079	0.914106	        -3159.92	         3017.13	        -142.795
     194	  2.0033	0.938034	        -3148.64	          3005.9	        -142.743
     195	 1.99503	0.964946	         -3136.2	         2993.49	        -142.715
     196	 1.98658	0.992806	        -3123.48	         2980.81	         -142.67
     197	  1.9788	 1.01894	        -3111.69	         2969.14	        -142.554
     198	 1.97303	 1.03907	        -3102.92	         2960.49	        -142.432
     199	 1.97048	  1.0493	         -3099.1	         2956.67	        -142.431
     200	 1.97127	  1.0492	        -3100.38	         2957.85	        -142.532
     201	  1.9745	 1.04148	         -3105.3	         2962.69	        -142.611
     202	 1.97927	 1.02893	        -3112.47	         2969.85	        -142.623
     203	 1.98515	 1.01305	        -3121.29	         2978.67	        -142.627
     204	 1.99174	0.995255	        -3131.26	         2988.56	        -142.702
     205	 1.99808	0.978777	        -3140.92	         2998.06	        -142.859
     206	  2.0025	0.968743	        -3147.72	         3004.69	        -143.025
     207	 2.00338	0.970132	        -3149.12	         3006.01	        -143.106
     208	 1.99997	0.985153	        -3143.97	         3000.91	        -143.061
     209	 1.99282	 1.01211	         -3133.1	         2990.17	        -142.927
     210	 1.98344	 1.04631	        -3118.85	          2976.1	        -142.741
     211	 1.97399	 1.08124	        -3104.46	         2961.94	        -142.517
     212	 1.96686	  1.1096	        -3093.61	         2951.24	        -142.368
     213	 1.96357	 1.12647	        -3088.73	          2946.3	        -142.431
     214	 1.96373	 1.13276	         -3089.2	         2946.55	        -142.651
     215	 1.96553	 1.13379	        -3092.08	         2949.23	        -142.843
     216	 1.96722	 1.13458	        -3094.68	         2951.78	        -142.902
     217	 1.96822	 1.13681	        -3096.13	         2953.27	        -142.855
     218	 1.96889	 1.13942	        -3097.07	         2954.28	         -142.79
     219	 1.96983	 1.14073	        -3098.46	         2955.69	        -142.765
     220	 1.97126	  1.1402	        -3100.63	         2957.83	        -142.798
     221	  1.9728	 1.13896	        -3103.02	         2960.15	        -142.875
     222	 1.97371	 1.13932	        -3104.43	         2961.52	        -142.912
     223	 1.97364	 1.14245	        -3104.24	         2961.41	        -142.837
     224	 1.97309	 1.14684	        -3103.32	         2960.57	        -142.741
     225	 1.97274	 1.15035	        -3102.81	         2960.06	        -142.751
     226	 1.97247	 1.15337	        -3102.51	         2959.65	        -142.854
     227	 1.97137	 1.15858	        -3100.95	            2958	        -142.952
     228	 1.96856	 1.16839	        -3096.78	         2953.79	        -142.987
     229	 1.96389	 1.18314	        -3089.69	         2946.78	        -142.915
     230	 1.95833	 1.19987	        -3081.15	         2938.44	        -142.712
     231	 1.95401	 1.21219	        -3074.46	         2931.96	        -142.498
     232	 1.95303	 1.21372	        -3072.94	         2930.49	        -142.451
     233	 1.95599	 1.20273	         -3077.5	         2934.93	        -142.569
     234	 1.96189	 1.18236	        -3086.48	         2943.77	        -142.704
     235	 1.96926	 1.15703	        -3097.62	         2954.83	        -142.793
     236	 1.97685	 1.13049	        -3109.09	         2966.22	        -142.861
     237	 1.98366	 1.10595	        -3119.32	         2976.43	        -142.893
     238	 1.98905	 1.08544	        -3127.38	         2984.52	        -142.865
     239	 1.99297	 1.06923	        -3133.22	          2990.4	         -142.82
     240	 1.99565	 1.05677	        -3137.22	         2994.41	        -142.807
     241	 1.99715	 1.04786	         -3139.5	         2996.67	        -142.823
     242	 1.99744	 1.04266	        -3139.93	         2997.11	        -142.818
     243	 1.99679	 1.04045	        -3138.85	         2996.12	        -142.722
     244	 1.99627	 1.03804	        -3137.89	         2995.36	        -142.537
     245	 1.99764	 1.03026	        -3139.81	         2997.41	        -142.404
     246	 2.00197	 1.01381	        -3146.37	         3003.91	        -142.464
     247	 2.00866	0.990595	        -3156.57	         3013.93	        -142.641
     248	 2.01591	0.966032	         -3167.6	         3024.81	         -142.79
     249	 2.02207	0.945139	         -3176.9	         3034.05	        -142.855
     250	 2.02625	0.930669	        -3183.16	         3040.32	        -142.838
     251	 2.02845	0.922862	        -3186.38	         3043.63	        -142.756
     252	 2.02934	0.919975	        -3187.62	         3044.96	        -142.663
     253	 2.02972	0.919773	        -3188.16	         3045.53	        -142.629
     254	 2.02993	0.921345	        -3188.51	         3045.84	        -142.669
