    Step 	 temperature 	 pressure 	 Potential Energy 	 Kinetic Energy 	 Sum Energy

       0	 1.64316	-0.291625	         -1408.1	         2465.71	         1057.62
       1	 1.64346	-0.291662	        -1408.55	         2466.16	         1057.61
       2	 1.64436	-0.291765	         -1409.9	         2467.52	         1057.61
       3	 1.64586	-0.291922	        -1412.15	         2469.77	         1057.61
       4	 1.64796	-0.292115	         -1415.3	         2472.91	         1057.61
       5	 1.65066	-0.292315	        -1419.34	         2476.96	         1057.61
       6	 1.65395	-0.292481	        -1424.28	         2481.89	         1057.61
       7	 1.65781	-0.292554	        -1430.08	         2487.69	         1057.61
       8	 1.66225	-0.292458	        -1436.73	         2494.34	         1057.61
       9	 1.66721	-0.292087	        -1444.19	         2501.79	          1057.6
      10	 1.67267	-0.291298	        -1452.38	         2509.97	         1057.59
      11	 1.67854	-0.289897	         -1461.2	         2518.77	         1057.58
      12	 1.68471	-0.287616	        -1470.48	         2528.04	         1057.56
      13	 1.69103	-0.284096	        -1479.99	         2537.52	         1057.53
      14	 1.69726	-0.278843	        -1489.37	         2546.86	         1057.49
      15	 1.70305	-0.271204	        -1498.12	         2555.54	         1057.43
      16	 1.70795	-0.26033	        -1505.54	         2562.89	         1057.35
      17	 1.71137	-0.245202	        -1510.77	         2568.03	         1057.26
      18	  1.7127	-0.224755	        -1512.84	         2570.01	         1057.17
      19	 1.71142	-0.198194	        -1510.98	          2568.1	         1057.12
      20	 1.70745	-0.165475	        -1505.02	         2562.14	         1057.12
      21	 1.70126	-0.127639	        -1495.69	         2552.86	         1057.17
      22	 1.69381	-0.0866096	        -1484.45	         2541.68	         1057.24
      23	 1.68619	-0.0445591	        -1472.96	         2530.25	          1057.3
      24	 1.67941	-0.00351099	        -1462.73	         2520.08	         1057.35
      25	 1.67433	0.0347742	        -1455.08	         2512.47	         1057.38
      26	 1.67152	0.0690854	        -1450.87	         2508.25	         1057.38
      27	 1.67106	0.099104	        -1450.23	         2507.56	         1057.33
      28	 1.67256	0.125383	        -1452.55	         2509.81	         1057.26
      29	 1.67537	   0.149	        -1456.82	         2514.02	          1057.2
      30	 1.67877	0.171111	        -1461.97	         2519.13	         1057.16
      31	 1.68228	0.192563	        -1467.24	         2524.39	         1057.15
      32	 1.68571	 0.21365	        -1472.36	         2529.53	         1057.17
      33	 1.68917	0.234139	        -1477.51	         2534.72	         1057.21
      34	 1.69297	0.253471	        -1483.17	         2540.42	         1057.26
      35	 1.69745	0.271046	        -1489.85	         2547.14	         1057.29
      36	 1.70283	0.286464	        -1497.91	         2555.21	         1057.29
      37	 1.70913	 0.29969	         -1507.4	         2564.67	         1057.27
      38	 1.71614	0.311132	        -1517.96	         2575.18	         1057.23
      39	 1.72342	0.321594	        -1528.93	          2586.1	         1057.16
      40	 1.73043	0.332046	         -1539.5	         2596.61	         1057.11
      41	 1.73677	0.343243	        -1549.04	         2606.13	         1057.08
      42	 1.74232	0.355439	        -1557.37	         2614.45	         1057.08
      43	 1.74712	0.368541	        -1564.58	         2621.65	         1057.07
      44	 1.75121	0.382486	        -1570.74	         2627.79	         1057.05
      45	 1.75461	0.397255	        -1575.83	         2632.88	         1057.04
      46	 1.75738	0.412664	        -1579.98	         2637.03	         1057.05
      47	 1.75975	0.428261	        -1583.52	          2640.6	         1057.08
      48	 1.76221	0.443182	        -1587.13	         2644.28	         1057.15
      49	 1.76555	 0.45598	        -1592.06	         2649.29	         1057.23
      50	  1.7706	0.465119	        -1599.62	         2656.88	         1057.26
      51	 1.77765	0.470103	        -1610.25	         2667.44	         1057.19
      52	 1.78616	0.471892	        -1623.11	          2680.2	          1057.1
      53	 1.79518	0.472198	        -1636.72	         2693.73	         1057.01
      54	  1.8038	0.472645	        -1649.73	         2706.68	         1056.95
      55	 1.81139	0.474429	        -1661.13	         2718.05	         1056.92
      56	 1.81761	0.478174	        -1670.45	         2727.39	         1056.94
      57	  1.8227	0.483553	        -1678.01	         2735.02	         1057.01
      58	 1.82726	0.489461	        -1684.81	         2741.86	         1057.05
      59	 1.83169	0.495193	        -1691.48	         2748.51	         1057.04
      60	 1.83591	0.500918	        -1697.81	         2754.83	         1057.03
      61	 1.83982	0.506781	        -1703.64	          2760.7	         1057.06
      62	 1.84367	0.512312	        -1709.37	         2766.48	         1057.11
      63	 1.84785	0.516806	        -1715.62	         2772.75	         1057.13
      64	 1.85254	0.519964	        -1722.67	         2779.77	          1057.1
      65	  1.8575	0.522174	        -1730.17	         2787.21	         1057.04
      66	 1.86224	0.524329	        -1737.35	         2794.33	         1056.98
      67	 1.86618	0.527422	        -1743.32	         2800.24	         1056.92
      68	 1.86883	0.532291	        -1747.34	         2804.22	         1056.88
      69	 1.86986	0.539455	        -1748.89	         2805.76	         1056.86
      70	 1.86932	0.548764	        -1748.04	         2804.95	         1056.92
      71	   1.868	0.558823	         -1745.9	         2802.97	         1057.07
      72	 1.86761	0.566601	        -1745.08	         2802.38	         1057.29
      73	 1.87026	0.568296	        -1748.95	         2806.36	         1057.41
      74	 1.87692	0.562142	        -1759.06	         2816.35	         1057.29
      75	 1.88655	0.550135	        -1773.69	         2830.79	          1057.1
      76	 1.89712	0.535926	        -1789.68	         2846.64	         1056.97
      77	 1.90704	0.522381	        -1804.62	         2861.52	          1056.9
      78	 1.91533	0.511286	        -1817.11	         2873.97	         1056.86
      79	 1.92142	0.503765	        -1826.27	         2883.11	         1056.84
      80	  1.9251	  0.5003	        -1831.74	         2888.61	         1056.87
      81	 1.92673	0.500295	        -1834.08	         2891.06	         1056.98
      82	  1.9275	0.501731	        -1835.07	         2892.22	         1057.15
      83	 1.92897	0.501805	        -1837.18	         2894.43	         1057.25
      84	 1.93206	 0.49889	        -1841.87	         2899.06	         1057.19
      85	 1.93632	0.493804	        -1848.39	         2905.45	         1057.06
      86	 1.94055	0.488729	        -1854.83	         2911.79	         1056.96
      87	 1.94367	0.485545	        -1859.57	         2916.47	          1056.9
      88	 1.94507	 0.48532	         -1861.7	         2918.57	         1056.87
      89	  1.9445	0.488492	        -1860.88	         2917.72	         1056.84
      90	  1.9419	0.495149	           -1857	         2913.82	         1056.82
      91	 1.93734	0.505104	        -1850.16	         2906.98	         1056.82
      92	 1.93122	0.517581	        -1840.92	          2897.8	         1056.88
      93	 1.92456	0.530739	         -1830.8	          2887.8	         1057.01
      94	 1.91885	0.541822	         -1822.1	         2879.24	         1057.14
      95	 1.91552	0.548249	        -1817.05	         2874.25	         1057.19
      96	 1.91517	0.548906	        -1816.58	         2873.72	         1057.15
      97	 1.91734	0.544614	        -1819.94	         2876.98	         1057.03
      98	 1.92087	0.537461	        -1825.33	         2882.27	         1056.94
      99	 1.92471	0.529355	        -1831.11	         2888.03	         1056.92
     100	 1.92846	0.521069	        -1836.71	         2893.67	         1056.96
     101	 1.93224	0.512484	        -1842.33	         2899.32	         1056.99
     102	 1.93619	0.503404	        -1848.25	         2905.25	         1056.99
     103	 1.94024	 0.49406	        -1854.34	         2911.33	         1056.98
     104	  1.9442	 0.48489	        -1860.27	         2917.26	         1056.99
     105	 1.94794	0.476163	        -1865.88	         2922.88	            1057
     106	 1.95138	0.468085	        -1871.04	         2928.03	         1056.99
     107	 1.95435	0.461001	        -1875.51	          2932.5	         1056.99
     108	 1.95674	0.455213	        -1879.07	         2936.08	         1057.01
     109	 1.95858	0.450673	         -1881.8	         2938.84	         1057.04
     110	 1.96013	0.446982	        -1884.09	         2941.17	         1057.08
     111	 1.96162	 0.44375	        -1886.32	          2943.4	         1057.08
     112	 1.96308	0.440961	        -1888.51	         2945.58	         1057.07
     113	 1.96439	0.438852	        -1890.48	         2947.55	         1057.07
     114	  1.9655	0.437528	        -1892.14	         2949.22	         1057.07
     115	 1.96636	 0.43707	        -1893.46	         2950.51	         1057.05
     116	 1.96671	0.437933	        -1894.04	         2951.03	         1056.99
     117	 1.96618	0.440784	        -1893.26	         2950.23	         1056.97
     118	 1.96477	0.445635	         -1891.1	         2948.13	         1057.03
     119	 1.96303	0.451469	        -1888.45	         2945.51	         1057.06
     120	 1.96132	0.457525	        -1885.94	         2942.95	         1057.01
     121	 1.95925	0.464464	        -1882.91	         2939.84	         1056.93
     122	 1.95627	0.473211	        -1878.43	         2935.37	         1056.93
     123	  1.9524	0.483568	        -1872.57	         2929.57	            1057
     124	  1.9483	0.494283	        -1866.35	         2923.42	         1057.08
     125	 1.94488	  0.5037	        -1861.13	         2918.28	         1057.15
     126	 1.94286	0.510445	        -1858.09	         2915.26	         1057.17
     127	 1.94252	0.514031	        -1857.61	         2914.75	         1057.14
     128	 1.94363	0.514869	        -1859.31	         2916.41	          1057.1
     129	 1.94575	0.513747	        -1862.52	         2919.59	         1057.06
     130	 1.94839	0.511525	        -1866.54	         2923.56	         1057.02
     131	 1.95102	0.509209	        -1870.52	         2927.49	         1056.97
     132	 1.95299	0.507949	        -1873.53	         2930.45	         1056.93
     133	 1.95382	0.508649	        -1874.78	          2931.7	         1056.91
     134	 1.95331	0.511649	        -1874.01	         2930.93	         1056.92
     135	 1.95149	0.516867	        -1871.28	          2928.2	         1056.93
     136	 1.94848	0.524043	        -1866.74	         2923.68	         1056.94
     137	 1.94452	0.532662	        -1860.77	         2917.75	         1056.98
     138	 1.94012	0.541736	         -1854.1	         2911.15	         1057.05
     139	 1.93609	0.549745	        -1847.97	         2905.11	         1057.14
     140	 1.93341	0.554882	        -1843.87	         2901.08	         1057.21
     141	 1.93277	0.555812	        -1842.91	         2900.12	         1057.21
     142	 1.93418	0.552525	        -1845.09	         2902.24	         1057.15
     143	 1.93704	0.546101	        -1849.45	         2906.53	         1057.08
     144	 1.94063	0.537875	        -1854.88	         2911.91	         1057.03
     145	 1.94432	 0.52901	        -1860.46	         2917.45	            1057
     146	 1.94769	0.520378	        -1865.52	          2922.5	         1056.98
     147	 1.95047	0.512515	        -1869.71	         2926.68	         1056.97
     148	  1.9526	0.505664	         -1872.9	         2929.87	         1056.97
     149	 1.95411	0.499844	        -1875.15	         2932.13	         1056.98
     150	 1.95509	0.494919	        -1876.62	          2933.6	         1056.98
     151	 1.95564	 0.49073	        -1877.45	         2934.42	         1056.97
     152	 1.95573	0.487295	        -1877.61	         2934.56	         1056.95
     153	 1.95531	0.484702	        -1876.97	         2933.93	         1056.96
     154	 1.95465	 0.48246	         -1875.9	         2932.94	         1057.03
     155	 1.95443	 0.47931	        -1875.52	         2932.61	         1057.09
     156	 1.95515	0.474322	        -1876.64	          2933.7	         1057.05
     157	 1.95655	0.468003	        -1878.83	         2935.79	         1056.96
     158	 1.95788	0.461738	        -1880.86	         2937.78	         1056.92
     159	 1.95881	0.456186	        -1882.22	         2939.19	         1056.97
     160	 1.95975	0.450676	        -1883.55	          2940.6	         1057.05
     161	 1.96128	0.444233	        -1885.83	         2942.89	         1057.06
     162	 1.96347	0.436806	        -1889.15	         2946.17	         1057.02
     163	 1.96594	0.429186	        -1892.88	         2949.88	         1056.99
     164	 1.96827	 0.42216	         -1896.4	         2953.38	         1056.97
     165	 1.97002	0.416511	        -1899.09	         2955.99	         1056.91
     166	 1.97042	0.413594	        -1899.77	          2956.6	         1056.83
     167	 1.96868	0.414843	        -1897.17	         2953.98	         1056.81
     168	 1.96455	0.420614	        -1890.93	          2947.8	         1056.87
     169	 1.95855	0.429918	        -1881.83	         2938.79	         1056.96
     170	 1.95161	 0.44098	        -1871.32	         2928.38	         1057.06
     171	 1.94487	0.451691	         -1861.1	         2918.27	         1057.17
     172	 1.93956	0.459799	        -1853.04	         2910.31	         1057.27
     173	 1.93664	0.463481	        -1848.65	         2905.93	         1057.28
     174	 1.93632	0.462323	        -1848.23	         2905.44	         1057.21
     175	 1.93798	0.457392	         -1850.8	         2907.94	         1057.14
     176	 1.94087	0.450069	        -1855.16	         2912.27	         1057.11
     177	 1.94454	0.441147	        -1860.66	         2917.78	         1057.12
     178	 1.94885	0.430956	        -1867.12	         2924.24	         1057.12
     179	 1.95359	0.419909	        -1874.26	         2931.35	         1057.09
     180	 1.95836	0.408826	        -1881.46	         2938.51	         1057.05
     181	 1.96262	0.398737	        -1887.88	          2944.9	         1057.02
     182	 1.96598	0.390417	        -1892.92	         2949.94	         1057.02
     183	 1.96833	0.384095	        -1896.42	         2953.47	         1057.05
     184	 1.96984	 0.37952	        -1898.64	         2955.73	         1057.08
     185	 1.97082	 0.37616	        -1900.08	          2957.2	         1057.12
     186	 1.97162	0.373427	        -1901.26	          2958.4	         1057.14
     187	 1.97243	0.370983	        -1902.48	         2959.62	         1057.13
     188	 1.97315	0.369009	        -1903.59	         2960.69	          1057.1
     189	 1.97347	0.368051	         -1904.1	         2961.17	         1057.08
     190	 1.97317	0.368511	        -1903.64	         2960.72	         1057.08
     191	  1.9722	0.370423	        -1902.19	         2959.27	         1057.08
     192	 1.97061	0.373689	        -1899.81	         2956.89	         1057.08
     193	 1.96839	0.378305	        -1896.49	         2953.56	         1057.07
     194	 1.96556	0.384192	        -1892.22	         2949.31	         1057.09
     195	 1.96239	0.390844	        -1887.41	         2944.55	         1057.13
     196	 1.95934	 0.39735	        -1882.81	         2939.98	         1057.17
     197	 1.95679	0.402998	        -1878.99	         2936.15	         1057.15
     198	 1.95468	0.407801	        -1875.88	         2932.99	         1057.11
     199	 1.95274	0.412241	        -1872.99	         2930.07	         1057.08
     200	 1.95081	0.416515	        -1870.07	         2927.18	         1057.11
     201	  1.9492	0.420058	        -1867.58	         2924.76	         1057.18
     202	 1.94858	0.421655	        -1866.58	         2923.84	         1057.25
     203	 1.94963	0.420113	        -1868.14	         2925.41	         1057.27
     204	 1.95251	0.415146	        -1872.52	         2929.74	         1057.22
     205	 1.95671	0.407749	        -1878.92	         2936.04	         1057.11
     206	 1.96119	0.399791	        -1885.75	         2942.76	            1057
     207	 1.96488	0.393253	        -1891.35	         2948.28	         1056.93
     208	 1.96698	0.389551	        -1894.54	         2951.45	          1056.9
     209	 1.96726	0.389193	        -1894.93	         2951.85	         1056.93
     210	 1.96598	0.391701	        -1892.94	         2949.94	            1057
     211	 1.96399	0.395653	        -1889.83	         2946.96	         1057.12
     212	 1.96249	0.398946	        -1887.46	          2944.7	         1057.24
     213	 1.96259	0.399613	        -1887.57	         2944.86	         1057.29
     214	  1.9647	0.396974	         -1890.8	         2948.03	         1057.22
     215	 1.96821	0.392167	        -1896.19	         2953.29	         1057.09
     216	 1.97187	0.387466	        -1901.79	         2958.77	         1056.98
     217	  1.9745	0.384996	        -1905.81	         2962.73	         1056.92
     218	 1.97553	0.385848	        -1907.33	         2964.26	         1056.93
     219	 1.97502	0.389921	        -1906.51	         2963.49	         1056.98
     220	 1.97354	0.396246	        -1904.23	         2961.27	         1057.04
     221	 1.97174	0.403664	        -1901.53	         2958.58	         1057.05
     222	 1.96982	0.411788	        -1898.73	          2955.7	         1056.97
     223	 1.96717	0.421621	        -1894.88	         2951.72	         1056.84
     224	 1.96282	0.434819	        -1888.43	          2945.2	         1056.77
     225	 1.95627	0.452133	        -1878.58	         2935.38	          1056.8
     226	 1.94793	0.472693	        -1865.97	         2922.87	          1056.9
     227	 1.93894	0.494337	        -1852.35	         2909.38	         1057.03
     228	 1.93075	0.514315	        -1839.96	          2897.1	         1057.14
     229	  1.9246	0.530304	        -1830.69	         2887.87	         1057.18
     230	 1.92099	  0.5413	        -1825.31	         2882.45	         1057.15
     231	 1.91965	0.547676	        -1823.38	         2880.45	         1057.07
     232	 1.91989	0.550613	        -1823.81	         2880.81	         1056.99
     233	 1.92092	 0.55147	        -1825.43	         2882.35	         1056.93
     234	  1.9221	0.551378	        -1827.25	         2884.12	         1056.87
     235	 1.92301	0.551101	        -1828.64	         2885.48	         1056.85
     236	 1.92379	0.550569	         -1829.7	         2886.65	         1056.95
     237	 1.92581	0.547554	        -1832.51	         2889.69	         1057.18
     238	  1.9309	0.538719	        -1840.19	         2897.32	         1057.12
     239	 1.93852	0.525063	        -1851.94	         2908.75	         1056.81
     240	 1.94592	0.511723	        -1863.21	         2919.84	         1056.63
     241	 1.95102	0.502313	        -1870.85	         2927.49	         1056.64
     242	 1.95355	0.497264	        -1874.54	         2931.29	         1056.75
     243	 1.95437	0.495074	        -1875.65	         2932.53	         1056.88
     244	 1.95463	 0.49376	        -1875.94	         2932.91	         1056.97
     245	 1.95522	0.491755	        -1876.76	         2933.79	         1057.04
     246	 1.95673	0.488044	        -1878.98	         2936.06	         1057.07
     247	 1.95941	0.482186	        -1883.02	         2940.09	         1057.07
     248	 1.96307	0.474594	        -1888.55	         2945.57	         1057.02
     249	 1.96701	0.466512	        -1894.53	         2951.49	         1056.96
     250	 1.97046	0.459413	        -1899.75	         2956.67	         1056.92
     251	 1.97286	0.454343	        -1903.35	         2960.26	         1056.92
     252	 1.97396	0.451766	        -1904.98	          2961.9	         1056.93
     253	 1.97374	0.451724	        -1904.62	         2961.57	         1056.95
