    Step 	 temperature 	 pressure 	 Potential Energy 	 Kinetic Energy 	 Sum Energy

       0	 1.87565	-0.887184	        -2364.36	         2817.39	          453.03
       1	 1.87609	-0.886703	        -2365.01	         2818.04	         453.025
       2	 1.87738	-0.88522	        -2366.95	         2819.97	         453.021
       3	  1.8795	-0.882652	        -2370.14	         2823.15	         453.016
       4	 1.88239	-0.878847	        -2374.49	          2827.5	         453.006
       5	   1.886	-0.873582	        -2379.91	         2832.91	         452.993
       6	  1.8902	-0.866538	        -2386.24	         2839.21	         452.974
       7	 1.89485	-0.857282	        -2393.24	         2846.19	         452.948
       8	 1.89974	-0.845234	        -2400.61	         2853.52	         452.912
       9	 1.90457	-0.82962	        -2407.91	         2860.77	         452.862
      10	 1.90894	-0.809425	        -2414.53	         2867.32	         452.794
      11	 1.91231	-0.783343	        -2419.67	         2872.37	         452.705
      12	 1.91399	-0.749777	        -2422.29	         2874.89	         452.598
      13	  1.9132	-0.706974	        -2421.23	         2873.72	         452.488
      14	 1.90927	-0.653438	         -2415.4	         2867.81	         452.407
      15	 1.90184	-0.588592	         -2404.3	         2856.67	         452.377
      16	 1.89111	-0.513188	         -2388.2	         2840.58	         452.378
      17	 1.87757	-0.428809	        -2367.88	         2820.26	         452.378
      18	 1.86176	-0.337187	        -2344.14	         2796.54	         452.396
      19	 1.84435	-0.240428	        -2317.98	         2770.43	          452.45
      20	 1.82625	-0.141234	        -2290.76	         2743.28	         452.514
      21	  1.8084	-0.0424283	        -2263.93	          2716.5	          452.57
      22	 1.79165	0.053449	        -2238.76	         2691.38	         452.621
      23	 1.77672	0.144175	        -2216.32	         2668.99	         452.668
      24	 1.76423	 0.22783	        -2197.54	         2650.25	         452.708
      25	 1.75465	0.302875	        -2183.15	         2635.88	         452.732
      26	 1.74828	0.368296	        -2173.59	         2626.32	         452.732
      27	 1.74513	 0.42377	        -2168.91	         2621.61	         452.702
      28	 1.74494	0.469786	        -2168.67	         2621.31	         452.637
      29	 1.74708	0.507634	        -2171.98	         2624.53	         452.545
      30	 1.75077	0.539133	        -2177.61	         2630.06	         452.452
      31	 1.75527	0.566009	        -2184.42	         2636.81	         452.388
      32	 1.76025	0.589115	        -2191.89	         2644.28	         452.389
      33	 1.76616	0.607616	        -2200.64	         2653.15	         452.515
      34	 1.77454	0.618163	        -2213.04	         2665.72	         452.677
      35	 1.78661	0.617743	        -2231.31	         2683.83	         452.513
      36	 1.80091	0.610202	        -2253.07	         2705.27	         452.203
      37	 1.81454	0.602868	        -2273.61	         2725.72	         452.113
      38	 1.82611	0.599111	         -2290.9	         2743.07	         452.176
      39	 1.83582	0.598629	        -2305.38	         2757.63	         452.255
      40	 1.84431	0.600161	        -2318.07	         2770.37	         452.299
      41	 1.85203	0.602864	        -2329.67	         2781.96	         452.285
      42	 1.85891	0.606978	        -2340.08	         2792.28	         452.205
      43	 1.86436	0.613951	        -2348.34	         2800.45	         452.112
      44	 1.86773	0.625279	        -2353.42	         2805.51	          452.09
      45	  1.8691	 0.64076	        -2355.38	         2807.57	         452.183
      46	 1.86961	0.657662	        -2355.98	         2808.33	         452.352
      47	 1.87103	0.671711	        -2357.98	         2810.46	         452.479
      48	 1.87471	0.679632	         -2363.5	         2815.98	         452.479
      49	 1.88083	0.680995	        -2372.77	         2825.16	         452.388
      50	 1.88862	0.677624	        -2384.56	         2836.84	         452.284
      51	 1.89704	0.671951	        -2397.27	         2849.47	         452.196
      52	 1.90516	0.666161	        -2409.52	         2861.65	         452.131
      53	 1.91233	0.661861	         -2420.3	          2872.4	         452.107
      54	 1.91841	0.659549	        -2429.36	         2881.53	         452.172
      55	 1.92403	0.657891	        -2437.68	         2889.96	         452.276
      56	 1.92987	0.655195	        -2446.52	         2898.72	         452.204
      57	 1.93516	0.653392	        -2454.64	         2906.64	         451.999
      58	 1.93805	0.657022	        -2459.06	         2910.98	         451.923
      59	 1.93767	0.668134	         -2458.4	         2910.41	         452.011
      60	 1.93468	0.685047	        -2453.77	         2905.92	         452.158
      61	 1.93047	0.704367	        -2447.35	         2899.61	         452.263
      62	 1.92625	0.723147	        -2440.98	         2893.29	         452.304
      63	  1.9228	0.739502	        -2435.76	         2888.11	         452.345
      64	 1.92086	0.751583	        -2432.79	          2885.2	          452.41
      65	 1.92119	 0.75741	        -2433.31	         2885.69	          452.38
      66	  1.9237	0.757091	        -2437.23	         2889.46	         452.237
      67	 1.92744	0.753038	        -2442.91	         2895.07	         452.165
      68	 1.93178	0.746738	        -2449.41	         2901.57	          452.16
      69	 1.93647	0.738657	        -2456.51	         2908.61	         452.103
      70	 1.94103	0.730134	        -2463.37	         2915.46	         452.088
      71	 1.94531	0.721764	        -2469.69	         2921.87	         452.178
      72	  1.9499	0.712188	        -2476.49	         2928.76	         452.274
      73	 1.95546	0.699997	        -2484.83	          2937.1	         452.279
      74	 1.96187	 0.68568	        -2494.51	         2946.71	         452.201
      75	 1.96819	0.671565	        -2504.09	         2956.19	         452.098
      76	 1.97323	0.660523	        -2511.73	         2963.76	         452.031
      77	 1.97616	0.654563	        -2516.11	         2968.14	          452.03
      78	 1.97681	0.654038	        -2517.03	         2969.12	         452.091
      79	 1.97568	0.657717	        -2515.25	         2967.43	         452.183
      80	 1.97367	0.663487	        -2512.15	         2964.41	         452.264
      81	  1.9716	  0.6693	           -2509	          2961.3	         452.304
      82	 1.97002	0.673834	        -2506.62	         2958.94	         452.313
      83	 1.96921	0.676413	        -2505.42	         2957.73	         452.308
      84	 1.96926	0.676795	        -2505.54	          2957.8	         452.268
      85	  1.9699	0.675601	        -2506.57	         2958.75	          452.18
      86	 1.97044	0.674455	        -2507.47	         2959.56	         452.099
      87	 1.97028	0.674855	        -2507.24	         2959.33	         452.089
      88	 1.96941	0.676879	        -2505.88	         2958.02	         452.139
      89	 1.96824	0.679461	        -2504.11	         2956.27	         452.163
      90	 1.96706	0.681932	        -2502.34	         2954.49	         452.155
      91	 1.96592	0.684181	         -2500.6	         2952.79	         452.193
      92	 1.96526	0.685236	        -2499.51	         2951.79	         452.289
      93	 1.96588	0.683107	        -2500.37	         2952.73	         452.358
      94	 1.96837	0.676444	        -2504.13	         2956.46	         452.335
      95	 1.97252	0.665846	        -2510.43	         2962.68	         452.257
      96	  1.9776	0.653167	         -2518.1	         2970.31	         452.207
      97	   1.983	0.639956	        -2526.24	         2978.41	         452.171
      98	 1.98812	0.627663	        -2534.01	         2986.09	         452.083
      99	 1.99201	0.618663	        -2539.94	         2991.92	         451.988
     100	 1.99368	0.615377	        -2542.48	         2994.44	         451.958
     101	 1.99276	 0.61873	        -2541.05	         2993.05	         451.999
     102	 1.98959	0.627872	        -2536.21	         2988.29	         452.087
     103	 1.98505	0.640703	        -2529.29	         2981.48	         452.195
     104	 1.98022	0.654596	        -2521.96	         2974.24	         452.281
     105	   1.976	0.667361	        -2515.59	          2967.9	         452.309
     106	 1.97272	 0.67808	        -2510.72	         2962.99	         452.278
     107	  1.9702	0.687166	        -2506.99	          2959.2	         452.214
     108	 1.96787	0.695794	        -2503.57	         2955.71	         452.147
     109	 1.96519	0.705192	        -2499.58	         2951.69	         452.108
     110	 1.96189	0.715891	        -2494.62	         2946.74	         452.125
     111	 1.95827	0.727117	        -2489.12	         2941.31	         452.197
     112	 1.95513	0.736901	        -2484.32	          2936.6	         452.278
     113	 1.95335	0.743074	        -2481.61	         2933.93	         452.321
     114	 1.95351	0.744273	        -2481.84	         2934.17	         452.334
     115	 1.95588	0.739944	        -2485.38	         2937.73	         452.344
     116	 1.96054	0.729941	        -2492.38	         2944.71	          452.33
     117	 1.96718	0.715009	        -2502.44	         2954.68	         452.239
     118	 1.97477	0.697697	        -2513.97	         2966.06	          452.09
     119	 1.98177	0.681806	        -2524.58	         2976.56	         451.978
     120	 1.98692	 0.67042	        -2532.34	         2984.29	         451.953
     121	 1.98975	0.664747	        -2536.56	         2988.53	         451.972
     122	 1.99023	 0.66485	        -2537.29	         2989.26	         451.967
     123	 1.98831	0.670886	        -2534.43	         2986.37	         451.938
     124	 1.98385	0.683122	        -2527.74	         2979.69	         451.943
     125	  1.9771	0.700875	        -2517.55	         2969.55	         452.004
     126	 1.96879	0.722155	        -2505.02	          2957.1	         452.076
     127	 1.95989	0.744551	        -2491.59	         2943.74	         452.143
     128	 1.95135	0.765637	         -2478.7	         2930.93	         452.235
     129	 1.94434	0.782589	        -2468.07	         2920.42	          452.35
     130	 1.94016	0.792318	         -2461.7	         2914.15	         452.452
     131	 1.93988	0.792334	        -2461.24	         2913.72	         452.478
     132	 1.94374	0.782137	        -2467.14	         2919.51	         452.378
     133	 1.95078	0.764208	        -2477.88	         2930.08	         452.192
     134	 1.95921	0.743072	         -2490.7	         2942.72	         452.021
     135	 1.96721	0.723223	        -2502.84	         2954.73	         451.892
     136	 1.97331	0.708314	        -2512.12	         2963.88	         451.755
     137	 1.97604	0.701851	        -2516.37	         2967.97	         451.599
     138	 1.97405	0.707042	        -2513.45	         2964.98	         451.527
     139	 1.96702	0.724597	        -2502.76	         2954.44	         451.681
     140	 1.95689	0.749936	        -2487.15	         2939.24	         452.087
     141	 1.94762	0.773382	        -2472.88	         2925.34	         452.459
     142	 1.94268	0.786391	        -2465.45	         2917.93	         452.479
     143	 1.94255	0.787833	        -2465.44	         2917.74	         452.298
     144	 1.94568	0.781462	        -2470.24	         2922.43	         452.193
     145	 1.95073	0.770358	        -2477.82	            2930	         452.184
     146	 1.95708	0.755956	        -2487.37	         2939.53	         452.155
     147	 1.96405	0.740012	        -2497.91	         2949.98	         452.071
     148	 1.97062	 0.72519	        -2507.83	         2959.84	         452.008
     149	 1.97592	0.713722	         -2515.8	         2967.78	         451.983
     150	  1.9794	0.706963	        -2521.06	            2973	         451.943
     151	 1.98054	0.706204	        -2522.81	         2974.72	           451.9
     152	 1.97897	0.712384	        -2520.44	         2972.36	          451.92
     153	 1.97494	0.724845	        -2514.31	         2966.32	         452.013
     154	 1.96943	0.741162	        -2505.94	         2958.05	         452.118
     155	 1.96359	0.758395	        -2497.13	          2949.3	         452.169
     156	 1.95821	0.774526	        -2489.05	         2941.22	         452.169
     157	 1.95366	  0.7885	        -2482.21	          2934.4	         452.191
     158	 1.95047	0.798982	        -2477.35	         2929.61	         452.257
     159	 1.94931	0.804128	         -2475.6	         2927.88	         452.279
     160	 1.95042	0.803304	        -2477.31	         2929.53	         452.218
     161	 1.95326	0.797773	        -2481.64	         2933.79	         452.158
     162	  1.9572	0.789091	        -2487.56	          2939.7	         452.148
     163	 1.96193	0.778008	        -2494.65	          2946.8	         452.147
     164	 1.96723	0.765086	        -2502.64	         2954.75	         452.109
     165	 1.97262	0.751573	        -2510.79	         2962.84	         452.044
     166	 1.97743	0.739155	        -2518.04	         2970.05	         452.009
     167	 1.98126	0.728851	        -2523.76	         2975.79	         452.035
     168	 1.98425	0.720381	        -2528.18	         2980.28	         452.102
     169	 1.98691	0.712577	        -2532.11	         2984.27	         452.168
     170	 1.98976	0.704284	        -2536.34	         2988.54	         452.204
     171	 1.99302	0.695011	        -2541.23	         2993.43	         452.205
     172	 1.99661	0.685022	        -2546.63	         2998.83	         452.199
     173	 2.00044	0.674711	        -2552.33	         3004.57	         452.243
     174	 2.00481	0.663528	        -2558.78	         3011.12	         452.339
     175	  2.0103	0.650135	        -2566.99	         3019.36	          452.37
     176	 2.01693	0.634646	        -2577.02	          3029.3	         452.279
     177	 2.02368	0.619645	        -2587.25	         3039.43	         452.176
     178	 2.02939	0.608064	        -2595.85	         3047.99	          452.14
     179	 2.03341	0.601461	        -2601.88	         3054.02	         452.136
     180	 2.03548	0.600464	        -2605.02	         3057.13	         452.107
     181	 2.03527	0.605843	        -2604.78	         3056.81	         452.038
     182	 2.03227	0.618734	        -2600.35	         3052.32	         451.974
     183	 2.02621	0.639722	        -2591.22	         3043.22	         451.993
     184	 2.01767	0.667264	        -2578.28	         3030.42	         452.137
     185	 2.00833	 0.69721	        -2564.12	          3016.4	          452.28
     186	 1.99969	0.725598	        -2551.19	         3003.44	          452.25
     187	 1.99188	0.751978	         -2539.6	         2991.73	         452.131
     188	 1.98417	0.777948	        -2528.08	         2980.16	         452.081
     189	 1.97629	0.803924	        -2516.22	         2968.35	         452.134
     190	 1.96895	 0.82816	        -2505.07	         2957.33	         452.261
     191	 1.96342	0.847499	        -2496.69	         2949.04	         452.349
     192	 1.96051	0.859888	        -2492.41	         2944.68	         452.268
     193	 1.95955	0.866854	        -2491.16	         2943.24	         452.075
     194	 1.95887	0.872337	        -2490.26	         2942.21	         451.948
     195	 1.95725	 0.87908	        -2487.82	         2939.79	         451.964
     196	 1.95474	0.886868	        -2483.96	         2936.02	         452.056
     197	  1.9521	0.893752	        -2479.93	         2932.06	         452.127
     198	 1.95007	0.897995	        -2476.85	         2929.02	          452.17
     199	  1.9492	0.898388	        -2475.47	          2927.7	         452.237
     200	 1.95014	0.893449	        -2476.79	         2929.12	         452.326
     201	  1.9536	0.881601	        -2481.95	          2934.3	         452.355
     202	 1.95961	0.862822	        -2491.07	         2943.33	          452.26
     203	  1.9671	0.839852	        -2502.48	         2954.56	         452.082
     204	 1.97422	0.817209	        -2513.31	         2965.23	         451.922
     205	 1.97929	0.798929	        -2520.99	         2972.85	          451.86
     206	 1.98165	0.786726	        -2524.46	         2976.38	         451.919
     207	 1.98179	0.779418	        -2524.53	         2976.59	         452.057
     208	 1.98103	0.773909	        -2523.26	         2975.45	          452.19
     209	 1.98072	0.767004	        -2522.71	         2974.98	         452.272
     210	 1.98177	0.756561	        -2524.25	         2976.56	         452.314
     211	 1.98465	0.741507	        -2528.55	         2980.88	         452.323
     212	 1.98939	0.721745	         -2535.7	         2987.99	          452.29
     213	 1.99561	0.698261	        -2545.09	         2997.33	         452.234
     214	 2.00269	0.672653	        -2555.75	         3007.94	         452.197
     215	 2.01009	0.646301	        -2566.86	         3019.04	         452.185
     216	 2.01745	0.620171	        -2577.91	         3030.08	         452.171
     217	 2.02438	0.595279	        -2588.34	         3040.48	         452.136
     218	 2.03034	0.573065	        -2597.32	         3049.41	         452.094
     219	 2.03476	0.555002	        -2603.96	         3056.05	         452.094
     220	 2.03746	0.541681	        -2607.97	          3060.1	         452.137
     221	 2.03863	0.532756	        -2609.67	         3061.85	         452.176
     222	 2.03847	0.527798	        -2609.42	         3061.61	         452.192
     223	 2.03706	 0.52672	        -2607.29	         3059.49	           452.2
     224	 2.03442	0.529499	        -2603.32	         3055.54	         452.214
     225	 2.03065	0.535891	        -2597.65	         3049.88	         452.229
     226	 2.02587	0.545541	        -2590.48	         3042.71	         452.232
     227	 2.02015	0.558183	        -2581.91	         3034.14	         452.229
     228	 2.01357	0.573548	        -2572.02	         3024.26	         452.242
     229	 2.00636	0.590945	        -2561.16	         3013.45	         452.286
     230	 1.99906	0.608965	        -2550.15	          3002.5	          452.35
     231	 1.99238	0.625786	        -2540.09	         2992.48	         452.391
     232	 1.98684	0.640057	        -2531.79	         2984.17	         452.378
     233	 1.98248	0.651558	         -2525.3	         2977.62	         452.319
     234	 1.97893	0.661075	        -2520.05	         2972.31	         452.251
     235	 1.97577	0.669599	        -2515.35	         2967.57	         452.221
     236	  1.9729	0.677378	        -2511.01	         2963.25	         452.244
     237	 1.97063	0.683618	        -2507.57	         2959.85	         452.279
     238	 1.96937	0.687344	         -2505.7	         2957.96	         452.263
     239	 1.96908	0.688661	        -2505.33	         2957.52	          452.19
     240	 1.96921	0.688861	         -2505.6	         2957.72	         452.117
     241	 1.96918	0.689318	        -2505.58	         2957.67	         452.094
     242	 1.96879	0.690446	        -2504.98	          2957.1	         452.119
     243	 1.96827	0.691693	        -2504.17	         2956.31	         452.149
     244	  1.9679	0.692345	         -2503.6	         2955.76	         452.164
     245	 1.96792	0.691907	         -2503.6	         2955.79	         452.195
     246	 1.96867	0.689661	        -2504.67	         2956.92	         452.253
     247	 1.97063	0.684557	        -2507.57	         2959.85	         452.277
     248	 1.97384	0.676507	        -2512.47	         2964.67	         452.196
     249	 1.97743	0.667651	        -2518.01	         2970.06	         452.051
     250	 1.97997	0.661462	        -2521.93	         2973.86	         451.936
     251	 1.98026	0.660689	         -2522.4	          2974.3	         451.897
     252	 1.97791	 0.66619	        -2518.84	         2970.77	          451.93
     253	  1.9733	0.676932	        -2511.86	         2963.87	         452.005
     254	 1.96736	0.690643	        -2502.86	         2954.95	         452.099
