    Step 	 temperature 	 pressure 	 Potential Energy 	 Kinetic Energy 	 Sum Energy

       0	 1.69457	 0.13643	        -166.379	          2547.7	         2381.32
       1	  1.6946	0.136425	        -166.415	         2547.74	         2381.32
       2	 1.69467	0.136411	        -166.524	         2547.85	         2381.32
       3	 1.69479	0.136389	        -166.706	         2548.03	         2381.32
       4	 1.69496	0.136357	        -166.962	         2548.28	         2381.32
       5	 1.69518	0.136315	        -167.292	         2548.61	         2381.32
       6	 1.69545	0.136265	        -167.698	         2549.02	         2381.32
       7	 1.69578	0.136204	        -168.181	          2549.5	         2381.32
       8	 1.69615	0.136134	        -168.742	         2550.06	         2381.32
       9	 1.69658	0.136055	        -169.384	         2550.71	         2381.32
      10	 1.69706	0.135965	        -170.107	         2551.43	         2381.32
      11	  1.6976	0.135865	        -170.915	         2552.24	         2381.32
      12	 1.69819	0.135754	        -171.809	         2553.13	         2381.32
      13	 1.69885	0.135633	        -172.793	         2554.12	         2381.32
      14	 1.69957	  0.1355	         -173.87	         2555.19	         2381.32
      15	 1.70035	0.135357	        -175.042	         2556.37	         2381.32
      16	  1.7012	0.135202	        -176.314	         2557.64	         2381.32
      17	 1.70212	0.135035	         -177.69	         2559.01	         2381.32
      18	 1.70311	0.134856	        -179.174	          2560.5	         2381.32
      19	 1.70417	0.134664	         -180.77	         2562.09	         2381.32
      20	 1.70531	0.134461	        -182.485	         2563.81	         2381.33
      21	 1.70654	0.134244	        -184.324	         2565.65	         2381.33
      22	 1.70785	0.134016	        -186.292	         2567.62	         2381.33
      23	 1.70925	0.133775	        -188.395	         2569.72	         2381.33
      24	 1.71075	0.133523	         -190.64	         2571.97	         2381.33
      25	 1.71234	0.133262	         -193.03	         2574.36	         2381.33
      26	 1.71404	0.132995	        -195.569	          2576.9	         2381.33
      27	 1.71583	0.132725	        -198.256	         2579.58	         2381.33
      28	 1.71771	0.132462	        -201.086	         2582.41	         2381.33
      29	 1.71968	0.132216	        -204.039	         2585.36	         2381.32
      30	 1.72171	0.132009	        -207.081	          2588.4	         2381.32
      31	 1.72374	0.131872	        -210.144	         2591.45	         2381.31
      32	 1.72571	0.131853	        -213.114	         2594.41	         2381.29
      33	  1.7275	0.132024	        -215.814	         2597.08	         2381.27
      34	 1.72894	0.132473	        -218.009	         2599.26	         2381.25
      35	 1.72992	0.133273	        -219.486	         2600.72	         2381.24
      36	 1.73048	0.134395	          -220.3	         2601.56	         2381.26
      37	 1.73107	0.135585	        -221.108	         2602.44	         2381.33
      38	  1.7324	0.136405	        -223.065	         2604.44	         2381.37
      39	 1.73483	 0.13663	        -226.773	         2608.08	         2381.31
      40	 1.73788	0.136546	        -231.449	         2612.66	         2381.21
      41	 1.74077	0.136631	        -235.811	            2617	         2381.19
      42	 1.74327	0.137021	        -239.497	         2620.75	         2381.25
      43	 1.74591	0.137404	        -243.366	         2624.71	         2381.34
      44	 1.74947	0.137326	        -248.671	         2630.04	         2381.37
      45	 1.75421	0.136642	        -255.843	         2637.16	         2381.32
      46	 1.75962	0.135681	        -264.049	         2645.27	         2381.22
      47	 1.76481	0.134985	        -271.896	         2653.05	         2381.16
      48	 1.76907	0.134975	        -278.316	         2659.45	         2381.13
      49	 1.77209	0.135842	        -282.846	         2663.98	         2381.13
      50	 1.77387	 0.13759	         -285.49	         2666.64	         2381.15
      51	 1.77459	0.140099	        -286.557	         2667.73	         2381.17
      52	 1.77459	0.143172	        -286.524	         2667.72	          2381.2
      53	 1.77417	0.146598	        -285.885	          2667.1	         2381.21
      54	 1.77359	0.150205	        -285.016	         2666.23	         2381.22
      55	 1.77303	0.153868	        -284.164	         2665.38	         2381.22
      56	 1.77261	0.157475	        -283.533	         2664.75	         2381.22
      57	 1.77247	0.160922	        -283.322	         2664.55	         2381.23
      58	 1.77273	0.164115	        -283.701	         2664.93	         2381.23
      59	 1.77345	0.166987	        -284.788	         2666.01	         2381.23
      60	 1.77468	0.169497	         -286.64	         2667.86	         2381.22
      61	 1.77641	0.171635	        -289.246	         2670.46	         2381.21
      62	 1.77856	0.173434	         -292.49	         2673.68	         2381.19
      63	 1.78098	0.174975	        -296.143	         2677.31	         2381.17
      64	  1.7835	0.176352	        -299.935	         2681.09	         2381.16
      65	 1.78601	0.177629	        -303.692	         2684.85	         2381.16
      66	 1.78852	0.178789	        -307.445	         2688.62	         2381.18
      67	 1.79118	0.179747	        -311.414	         2692.61	          2381.2
      68	 1.79417	0.180393	        -315.887	          2697.1	         2381.21
      69	 1.79762	0.180657	        -321.053	         2702.27	         2381.22
      70	 1.80151	0.180545	        -326.907	         2708.11	          2381.2
      71	 1.80573	0.180137	        -333.245	         2714.43	         2381.19
      72	 1.81006	0.179558	        -339.761	         2720.93	         2381.17
      73	 1.81432	0.178927	        -346.163	         2727.32	         2381.16
      74	 1.81841	0.178314	         -352.29	         2733.45	         2381.17
      75	 1.82233	0.177726	        -358.154	         2739.33	         2381.18
      76	 1.82616	0.177123	        -363.884	         2745.07	         2381.19
      77	 1.82999	0.176461	        -369.621	         2750.82	          2381.2
      78	 1.83387	0.175719	        -375.447	         2756.65	          2381.2
      79	 1.83782	0.174901	        -381.372	         2762.57	          2381.2
      80	 1.84181	0.174031	        -387.356	         2768.56	          2381.2
      81	 1.84579	0.173147	        -393.332	         2774.53	          2381.2
      82	  1.8497	0.172294	          -399.2	         2780.39	         2381.19
      83	 1.85347	0.171521	        -404.858	         2786.05	         2381.19
      84	 1.85708	0.170855	        -410.257	         2791.45	          2381.2
      85	 1.86055	0.170284	        -415.452	         2796.66	         2381.21
      86	 1.86398	0.169763	        -420.591	         2801.81	         2381.22
      87	 1.86743	0.169264	        -425.776	         2806.98	         2381.21
      88	  1.8708	0.168854	        -430.869	         2812.04	         2381.17
      89	 1.87379	0.168719	        -435.399	         2816.52	         2381.12
      90	 1.87599	0.169099	        -438.743	         2819.83	         2381.09
      91	 1.87715	0.170152	        -440.473	         2821.56	         2381.09
      92	 1.87733	0.171824	          -440.7	         2821.83	         2381.13
      93	 1.87702	0.173821	        -440.172	         2821.36	         2381.19
      94	 1.87689	 0.17573	        -439.934	         2821.17	         2381.24
      95	 1.87739	0.177266	          -440.7	         2821.93	         2381.23
      96	 1.87855	 0.17841	         -442.48	         2823.67	         2381.19
      97	 1.88004	 0.17935	        -444.758	         2825.91	         2381.15
      98	 1.88146	0.180314	        -446.913	         2828.03	         2381.12
      99	 1.88249	0.181478	        -448.479	         2829.58	          2381.1
     100	 1.88302	0.182914	        -449.261	         2830.37	         2381.11
     101	 1.88311	0.184574	        -449.375	          2830.5	         2381.12
     102	 1.88295	0.186337	        -449.125	         2830.26	         2381.14
     103	  1.8827	0.188096	         -448.76	         2829.89	         2381.13
     104	 1.88242	0.189815	        -448.341	         2829.47	         2381.12
     105	 1.88207	0.191489	        -447.826	         2828.94	         2381.12
     106	 1.88164	0.193112	        -447.181	         2828.29	         2381.11
     107	 1.88114	0.194648	        -446.437	         2827.56	         2381.12
     108	 1.88073	0.196003	        -445.787	         2826.93	         2381.15
     109	 1.88072	0.196971	        -445.722	         2826.92	          2381.2
     110	 1.88163	0.197242	        -447.035	         2828.29	         2381.25
     111	 1.88396	0.196527	        -450.499	         2831.78	         2381.28
     112	 1.88787	0.194733	        -456.387	         2837.64	         2381.25
     113	 1.89307	0.192051	        -464.248	         2845.45	          2381.2
     114	 1.89896	0.188868	         -473.14	         2854.29	         2381.15
     115	  1.9049	0.185596	        -482.075	         2863.18	         2381.11
     116	 1.91036	0.182565	        -490.288	         2871.37	         2381.09
     117	 1.91501	0.180004	        -497.274	         2878.35	         2381.08
     118	 1.91864	0.178061	        -502.732	          2883.8	         2381.07
     119	 1.92118	0.176807	        -506.528	         2887.61	         2381.08
     120	 1.92265	 0.17623	        -508.719	         2889.82	          2381.1
     121	 1.92324	0.176233	        -509.569	          2890.7	         2381.13
     122	 1.92322	0.176646	        -509.512	         2890.67	         2381.16
     123	 1.92292	0.177275	        -509.029	         2890.21	         2381.19
     124	 1.92258	0.177957	        -508.515	         2889.72	          2381.2
     125	 1.92241	0.178575	        -508.241	         2889.45	         2381.21
     126	 1.92251	0.179046	        -508.393	         2889.61	         2381.22
     127	 1.92299	0.179313	          -509.1	         2890.32	         2381.22
     128	 1.92384	0.179357	        -510.397	         2891.61	         2381.21
     129	 1.92502	0.179215	        -512.183	         2893.38	         2381.19
     130	 1.92638	0.178972	        -514.229	          2895.4	         2381.17
     131	 1.92773	0.178725	         -516.28	         2897.44	         2381.16
     132	 1.92898	0.178541	        -518.155	         2899.31	         2381.16
     133	 1.93004	0.178458	        -519.751	          2900.9	         2381.15
     134	 1.93083	0.178515	        -520.946	         2902.08	         2381.13
     135	 1.93125	 0.17876	        -521.586	         2902.71	         2381.13
     136	 1.93132	0.179178	        -521.664	         2902.82	         2381.15
     137	 1.93131	0.179597	        -521.598	         2902.81	         2381.21
     138	 1.93179	0.179685	        -522.246	         2903.52	         2381.27
     139	 1.93326	0.179126	        -524.444	         2905.74	         2381.29
     140	 1.93588	0.177846	        -528.404	         2909.67	         2381.26
     141	 1.93932	0.176053	        -533.605	         2914.82	         2381.21
     142	   1.943	0.174096	        -539.181	         2920.34	         2381.16
     143	 1.94639	0.172311	        -544.303	         2925.43	         2381.13
     144	 1.94906	0.170965	        -548.332	         2929.43	          2381.1
     145	 1.95071	0.170244	        -550.824	         2931.91	         2381.08
     146	 1.95118	0.170251	        -551.527	         2932.61	         2381.08
     147	 1.95046	0.170985	        -550.439	         2931.53	          2381.1
     148	  1.9488	0.172302	        -547.904	         2929.04	         2381.14
     149	 1.94669	0.173899	        -544.675	         2925.88	          2381.2
     150	 1.94483	0.175356	        -541.814	         2923.08	         2381.27
     151	  1.9439	0.176255	        -540.383	         2921.69	         2381.31
     152	 1.94431	0.176351	        -541.005	         2922.31	          2381.3
     153	   1.946	0.175679	        -543.584	         2924.84	         2381.26
     154	 1.94856	0.174491	        -547.469	         2928.68	         2381.22
     155	 1.95149	0.173094	        -551.894	         2933.08	         2381.18
     156	 1.95436	0.171751	        -556.222	         2937.37	         2381.15
     157	 1.95681	0.170686	        -559.928	         2941.05	         2381.13
     158	 1.95858	0.170077	        -562.592	          2943.7	         2381.11
     159	 1.95953	0.170016	        -564.009	         2945.13	         2381.12
     160	 1.95975	0.170458	        -564.324	         2945.47	         2381.15
     161	 1.95956	0.171236	        -563.998	         2945.17	         2381.18
     162	 1.95921	0.172182	        -563.481	         2944.65	         2381.17
     163	 1.95872	0.173288	        -562.783	         2943.91	         2381.13
     164	 1.95781	0.174707	        -561.451	         2942.55	          2381.1
     165	 1.95626	0.176561	        -559.116	         2940.22	         2381.11
     166	 1.95428	 0.17871	        -556.095	         2937.27	         2381.17
     167	 1.95254	0.180753	        -553.411	         2934.65	         2381.24
     168	 1.95164	0.182303	        -552.053	         2933.29	         2381.24
     169	 1.95169	0.183288	        -552.171	         2933.37	          2381.2
     170	 1.95235	0.183906	        -553.202	         2934.36	         2381.16
     171	 1.95323	0.184375	        -554.546	         2935.68	         2381.14
     172	 1.95409	0.184827	        -555.841	         2936.97	         2381.13
     173	 1.95483	0.185316	        -556.943	         2938.08	         2381.14
     174	 1.95548	0.185817	        -557.914	         2939.07	         2381.15
     175	 1.95617	0.186267	        -558.931	         2940.09	         2381.16
     176	  1.9569	 0.18665	        -560.045	         2941.19	         2381.14
     177	 1.95753	 0.18706	        -561.017	         2942.13	         2381.11
     178	 1.95776	 0.18767	          -561.4	         2942.49	         2381.09
     179	 1.95736	0.188627	        -560.802	         2941.88	         2381.08
     180	 1.95625	0.189963	        -559.124	         2940.22	         2381.09
     181	 1.95461	0.191568	        -556.632	         2937.76	         2381.13
     182	 1.95278	 0.19323	        -553.846	         2935.01	         2381.16
     183	 1.95115	0.194703	        -551.374	         2932.57	         2381.19
     184	 1.95009	0.195765	        -549.757	         2930.97	         2381.21
     185	  1.9498	0.196273	        -549.333	         2930.54	         2381.21
     186	 1.95032	0.196204	        -550.134	         2931.32	         2381.19
     187	 1.95154	0.195624	        -551.974	         2933.15	         2381.18
     188	 1.95342	0.194568	        -554.773	         2935.96	         2381.19
     189	 1.95609	0.192963	        -558.761	         2939.97	         2381.21
     190	 1.95968	0.190752	        -564.155	         2945.36	          2381.2
     191	 1.96398	0.188076	        -570.657	         2951.81	         2381.15
     192	 1.96845	0.185281	        -577.424	         2958.52	          2381.1
     193	 1.97244	0.182777	        -583.448	          2964.5	         2381.05
     194	 1.97541	0.180894	        -587.927	         2968.96	         2381.03
     195	 1.97709	0.179811	        -590.438	         2971.48	         2381.04
     196	 1.97745	0.179548	         -590.96	         2972.02	         2381.06
     197	 1.97672	0.179982	        -589.816	         2970.91	          2381.1
     198	 1.97522	0.180902	        -587.544	         2968.68	         2381.13
     199	 1.97335	0.182075	        -584.714	         2965.87	         2381.16
     200	  1.9714	0.183312	        -581.766	         2962.93	         2381.17
     201	 1.96954	0.184487	        -578.967	         2960.14	         2381.18
     202	 1.96792	0.185493	        -576.535	         2957.73	         2381.19
     203	 1.96677	0.186196	        -574.775	         2955.99	         2381.21
     204	  1.9663	0.186439	        -574.066	          2955.3	         2381.23
     205	 1.96669	0.186124	        -574.652	         2955.88	         2381.22
     206	 1.96787	0.185283	        -576.448	         2957.65	          2381.2
     207	  1.9696	0.184066	        -579.073	         2960.24	         2381.17
     208	 1.97159	0.182652	        -582.082	         2963.23	         2381.15
     209	 1.97363	0.181179	        -585.151	         2966.29	         2381.14
     210	 1.97556	0.179749	         -588.06	         2969.18	         2381.12
     211	 1.97723	0.178461	        -590.576	         2971.69	         2381.11
     212	 1.97853	0.177396	        -592.517	         2973.63	         2381.12
     213	 1.97956	0.176508	        -594.019	         2975.18	         2381.16
     214	 1.98066	0.175596	        -595.638	         2976.83	          2381.2
     215	 1.98219	0.174461	        -597.922	         2979.12	          2381.2
     216	 1.98415	0.173099	        -600.898	         2982.07	         2381.17
     217	 1.98633	0.171664	        -604.179	         2985.33	         2381.15
     218	 1.98851	0.170286	        -607.455	         2988.61	         2381.15
     219	 1.99063	0.169019	        -610.641	         2991.79	         2381.15
     220	 1.99255	0.167952	        -613.553	         2994.67	         2381.12
     221	 1.99395	0.167289	        -615.681	         2996.76	         2381.08
     222	 1.99448	0.167241	        -616.492	         2997.57	         2381.07
     223	 1.99406	0.167866	        -615.837	         2996.93	          2381.1
     224	 1.99283	0.169068	        -613.964	         2995.08	         2381.12
     225	   1.991	0.170712	        -611.208	         2992.34	         2381.13
     226	 1.98871	  0.1727	        -607.777	         2988.91	         2381.13
     227	 1.98605	0.174968	         -603.78	         2984.92	         2381.14
     228	 1.98309	0.177446	        -599.333	         2980.47	         2381.14
     229	 1.97995	0.180035	        -594.613	         2975.77	         2381.15
     230	  1.9768	 0.18261	        -589.874	         2971.04	         2381.17
     231	 1.97386	0.185018	        -585.441	         2966.63	         2381.18
     232	 1.97134	0.187103	        -581.657	         2962.85	          2381.2
     233	 1.96943	0.188741	        -578.785	         2959.99	          2381.2
     234	 1.96821	0.189862	        -576.958	         2958.16	          2381.2
     235	 1.96774	0.190427	        -576.245	         2957.45	         2381.21
     236	 1.96809	0.190394	        -576.753	         2957.98	         2381.22
     237	 1.96937	0.189701	         -578.66	          2959.9	         2381.24
     238	 1.97169	0.188302	        -582.136	         2963.38	         2381.24
     239	 1.97501	0.186238	        -587.147	         2968.36	         2381.22
     240	 1.97901	0.183726	        -593.207	         2974.36	         2381.15
     241	 1.98303	0.181177	        -599.316	         2980.39	         2381.08
     242	 1.98628	0.179082	         -604.25	         2985.27	         2381.01
     243	 1.98814	0.177823	        -607.053	         2988.05	         2380.99
     244	 1.98839	0.177533	        -607.401	         2988.42	         2381.02
     245	 1.98729	0.178061	        -605.698	         2986.78	         2381.08
     246	 1.98544	0.179047	        -602.863	         2984.01	         2381.14
     247	 1.98357	0.180062	        -599.988	         2981.19	          2381.2
     248	 1.98233	 0.18071	        -598.078	         2979.33	         2381.25
     249	 1.98223	0.180689	        -597.907	         2979.18	         2381.27
     250	 1.98345	0.179891	        -599.763	         2981.01	         2381.25
     251	 1.98572	0.178487	        -603.218	         2984.41	          2381.2
     252	 1.98843	0.176843	        -607.345	         2988.49	         2381.15
     253	 1.99101	0.175323	        -611.235	         2992.35	         2381.12
     254	 1.99305	0.174166	        -614.309	         2995.42	         2381.11
