    Step 	 temperature 	 pressure 	 Potential Energy 	 Kinetic Energy 	 Sum Energy

       0	 2.44898	-1.91352	        -4426.69	         3684.06	        -742.629
       1	 2.44729	-1.90087	        -4424.19	         3681.52	        -742.676
       2	 2.44194	  -1.862	        -4416.27	          3673.5	        -742.769
       3	 2.43218	-1.79443	        -4401.79	         3658.85	        -742.936
       4	 2.41667	-1.69381	        -4378.78	         3635.59	         -743.19
       5	  2.3934	-1.55378	        -4344.23	         3600.69	        -743.543
       6	 2.35972	-1.36604	        -4294.14	         3550.17	        -743.978
       7	 2.31263	-1.12162	        -4223.93	         3479.53	        -744.392
       8	 2.25002	-0.814895	        -4130.15	         3385.62	        -744.534
       9	 2.17299	-0.451642	        -4014.17	         3270.07	        -744.102
      10	   2.088	-0.0569109	        -3885.76	         3142.58	        -743.179
      11	 2.00536	    0.33	        -3761.03	         3018.63	        -742.401
      12	 1.93378	 0.67583	         -3653.4	         2911.26	        -742.141
      13	 1.87696	 0.96578	         -3568.2	         2826.03	        -742.174
      14	   1.835	 1.19789	        -3505.31	         2763.08	        -742.234
      15	 1.80693	 1.37421	        -3463.22	         2720.97	        -742.241
      16	 1.79187	 1.49704	        -3440.63	         2698.39	        -742.238
      17	 1.78888	 1.56955	        -3436.22	         2693.91	         -742.31
      18	 1.79634	 1.59779	        -3447.59	         2705.09	        -742.495
      19	 1.81165	 1.59166	        -3470.83	         2728.07	        -742.759
      20	 1.83161	 1.56353	        -3501.04	         2758.01	        -743.035
      21	 1.85297	 1.52597	        -3533.31	         2790.04	        -743.278
      22	 1.87292	 1.48991	        -3563.44	         2819.97	        -743.475
      23	 1.88932	 1.46393	        -3588.19	         2844.57	        -743.618
      24	 1.90082	 1.45364	        -3605.48	         2861.82	        -743.663
      25	 1.90722	 1.46037	        -3615.01	         2871.42	        -743.592
      26	 1.90953	 1.48082	        -3618.35	         2874.89	        -743.465
      27	 1.90946	 1.50908	        -3618.13	         2874.78	        -743.353
      28	 1.90871	 1.53911	        -3616.91	         2873.65	        -743.261
      29	 1.90875	 1.56556	        -3616.91	         2873.71	         -743.21
      30	 1.91052	 1.58478	        -3619.62	         2876.36	         -743.26
      31	 1.91403	 1.59654	        -3625.01	         2881.64	        -743.376
      32	  1.9188	 1.60273	        -3632.19	         2888.79	        -743.397
      33	 1.92494	 1.60301	        -3641.32	            2898	        -743.323
      34	 1.93302	 1.59521	        -3653.48	         2910.12	        -743.363
      35	 1.94262	  1.5811	        -3668.02	         2924.51	        -743.503
      36	 1.95237	 1.56593	        -3682.72	         2939.14	        -743.578
      37	 1.96123	 1.55356	        -3696.03	         2952.44	        -743.589
      38	 1.96872	 1.54574	         -3707.3	         2963.66	        -743.643
      39	 1.97415	 1.54486	        -3715.57	         2971.82	        -743.759
      40	 1.97667	 1.55416	        -3719.39	         2975.59	        -743.804
      41	 1.97622	 1.57391	        -3718.59	         2974.92	        -743.665
      42	 1.97429	 1.59874	        -3715.49	         2972.02	        -743.472
      43	 1.97272	 1.62176	        -3713.07	         2969.67	        -743.405
      44	 1.97232	 1.64004	        -3712.51	         2969.07	        -743.438
      45	 1.97285	 1.65425	        -3713.37	         2969.86	        -743.509
      46	 1.97357	 1.66663	        -3714.54	         2970.95	        -743.591
      47	 1.97378	 1.67954	        -3714.86	         2971.25	        -743.604
      48	 1.97348	 1.69298	        -3714.28	         2970.81	        -743.468
      49	 1.97399	  1.7024	        -3714.82	         2971.57	        -743.257
      50	 1.97711	 1.70135	        -3719.44	         2976.26	        -743.182
      51	 1.98347	 1.68788	         -3729.1	         2985.79	        -743.312
      52	 1.99185	 1.66658	        -3741.87	         2998.36	        -743.509
      53	 2.00034	 1.64441	        -3754.76	          3011.1	        -743.654
      54	 2.00754	 1.62656	        -3765.58	         3021.89	        -743.685
      55	 2.01313	 1.61428	         -3773.9	         3030.28	        -743.621
      56	 2.01763	 1.60574	        -3780.61	         3037.03	        -743.585
      57	 2.02137	 1.59976	        -3786.28	         3042.65	        -743.631
      58	 2.02406	 1.59756	        -3790.32	         3046.67	        -743.654
      59	 2.02543	 1.59991	        -3792.34	         3048.74	        -743.604
      60	 2.02581	 1.60555	        -3792.84	         3049.31	        -743.535
      61	 2.02572	 1.61253	        -3792.67	         3049.17	        -743.497
      62	 2.02547	 1.61974	        -3792.29	         3048.79	        -743.498
      63	 2.02503	 1.62729	        -3791.65	         3048.13	        -743.522
      64	 2.02414	 1.63617	        -3790.36	         3046.79	        -743.572
      65	 2.02227	 1.64822	        -3787.65	         3043.99	        -743.658
      66	 2.01868	 1.66606	        -3782.36	         3038.61	        -743.744
      67	 2.01278	  1.6918	        -3773.51	         3029.75	        -743.757
      68	 2.00473	 1.72473	        -3761.33	         3017.68	        -743.654
      69	 1.99586	 1.76007	        -3747.84	         3004.38	        -743.458
      70	 1.98832	 1.79007	        -3736.34	         2993.07	        -743.267
      71	 1.98412	 1.80749	        -3729.96	         2986.76	        -743.202
      72	 1.98397	 1.80967	        -3729.85	         2986.55	          -743.3
      73	 1.98705	 1.79973	        -3734.62	         2991.16	        -743.461
      74	 1.99173	 1.78351	        -3741.76	         2998.19	        -743.578
      75	 1.99664	 1.76601	        -3749.19	         3005.54	        -743.649
      76	 2.00081	 1.75066	        -3755.51	         3011.81	        -743.703
      77	 2.00361	 1.73993	        -3759.75	            3016	        -743.749
      78	 2.00457	 1.73543	        -3761.24	         3017.45	        -743.787
      79	 2.00359	 1.73774	        -3759.74	         3015.97	        -743.763
      80	 2.00133	 1.74473	        -3756.19	         3012.59	        -743.601
      81	 1.99968	 1.74986	         -3753.5	          3010.1	        -743.397
      82	 2.00062	 1.74588	        -3754.91	         3011.52	        -743.389
      83	 2.00436	 1.73212	        -3760.74	         3017.13	        -743.612
      84	 2.00893	 1.71576	        -3767.84	         3023.99	        -743.856
      85	 2.01196	 1.70536	        -3772.47	         3028.52	        -743.948
      86	 2.01223	 1.70506	        -3772.85	         3028.94	        -743.909
      87	 2.00983	 1.71448	        -3769.18	         3025.34	        -743.837
      88	 2.00541	 1.73129	        -3762.46	          3018.7	        -743.757
      89	 1.99989	 1.75216	        -3754.07	         3010.42	         -743.65
      90	 1.99457	 1.77247	        -3745.96	         3002.45	        -743.507
      91	 1.99092	 1.78686	        -3740.43	         2996.96	        -743.467
      92	 1.98918	 1.79388	        -3738.03	         2994.36	        -743.668
      93	 1.98777	 1.79933	        -3736.05	         2992.24	         -743.81
      94	 1.98537	 1.80779	        -3732.34	         2988.65	        -743.693
      95	 1.98266	  1.8165	         -3728.1	         2984.58	        -743.526
      96	 1.98086	 1.82084	         -3725.4	         2981.88	        -743.517
      97	 1.98008	 1.82058	        -3724.33	          2980.7	        -743.629
      98	 1.97937	 1.81925	        -3723.36	         2979.65	        -743.713
      99	 1.97802	 1.81965	         -3721.3	         2977.61	        -743.686
     100	 1.97625	 1.82118	        -3718.54	         2974.96	        -743.585
     101	 1.97489	 1.82105	        -3716.48	         2972.93	        -743.551
     102	 1.97421	 1.81855	        -3715.56	          2971.9	        -743.664
     103	 1.97328	 1.81717	         -3714.3	         2970.51	         -743.79
     104	 1.97116	 1.82057	        -3711.09	         2967.32	        -743.766
     105	 1.96809	 1.82776	        -3706.34	         2962.72	        -743.615
     106	 1.96546	 1.83367	        -3702.25	         2958.77	         -743.48
     107	 1.96463	 1.83338	        -3700.95	         2957.53	        -743.421
     108	 1.96632	  1.8243	        -3703.49	         2960.06	        -743.424
     109	 1.97056	  1.8063	        -3709.92	         2966.42	        -743.496
     110	 1.97668	 1.78178	        -3719.22	         2975.61	         -743.61
     111	 1.98364	 1.75477	        -3729.75	         2986.05	        -743.696
     112	 1.99048	 1.72893	        -3740.07	          2996.3	         -743.77
     113	 1.99619	 1.70786	        -3748.78	         3004.87	        -743.904
     114	 1.99938	 1.69674	        -3753.68	         3009.66	        -744.026
     115	 1.99886	 1.69994	        -3752.88	         3008.88	        -743.999
     116	 1.99477	  1.7169	        -3746.59	         3002.74	        -743.851
     117	 1.98841	 1.74269	        -3736.89	          2993.2	        -743.683
     118	  1.9815	  1.7711	        -3726.39	         2982.83	        -743.555
     119	 1.97542	 1.79694	         -3717.2	         2973.71	        -743.491
     120	 1.97097	 1.81714	        -3710.51	         2967.04	        -743.472
     121	  1.9685	 1.83025	        -3706.77	         2963.34	        -743.432
     122	  1.9684	 1.83478	        -3706.56	         2963.18	         -743.38
     123	   1.971	 1.82933	        -3710.46	         2967.09	        -743.374
     124	 1.97622	 1.81421	        -3718.35	         2974.92	        -743.429
     125	 1.98335	 1.79197	        -3729.16	         2985.61	        -743.548
     126	   1.991	 1.76747	        -3740.83	         2997.08	        -743.747
     127	 1.99715	 1.74785	        -3750.25	          3006.3	        -743.941
     128	 2.00003	  1.7395	         -3754.6	         3010.64	        -743.958
     129	 1.99958	 1.74285	         -3753.7	         3009.95	         -743.75
     130	 1.99766	 1.75112	        -3750.58	         3007.08	        -743.495
     131	 1.99659	 1.75602	         -3748.9	         3005.47	        -743.432
     132	 1.99705	 1.75504	        -3749.73	         3006.17	        -743.564
     133	 1.99808	 1.75176	        -3751.41	         3007.71	        -743.702
     134	  1.9985	  1.7503	        -3752.07	         3008.33	        -743.734
     135	 1.99806	 1.75152	        -3751.36	         3007.68	        -743.674
     136	 1.99747	 1.75314	        -3750.37	         3006.79	         -743.58
     137	  1.9978	 1.75161	        -3750.79	         3007.29	        -743.494
     138	 1.99995	 1.74401	        -3754.01	         3010.51	        -743.499
     139	 2.00377	 1.73089	        -3759.89	         3016.24	        -743.652
     140	 2.00773	 1.71778	        -3766.03	         3022.18	        -743.843
     141	 2.00989	 1.71169	        -3769.34	         3025.43	        -743.919
     142	 2.00927	 1.71607	        -3768.33	         3024.49	        -743.839
     143	 2.00627	 1.72928	         -3763.7	         3019.99	        -743.709
     144	  2.0019	 1.74753	        -3757.06	         3013.43	        -743.626
     145	 1.99696	  1.7678	        -3749.58	         3006.02	        -743.558
     146	 1.99216	 1.78742	         -3742.3	         2998.83	         -743.47
     147	  1.9883	 1.80333	        -3736.46	         2993.04	         -743.42
     148	 1.98579	  1.8138	        -3732.74	         2989.27	        -743.462
     149	 1.98427	  1.8201	        -3730.55	         2986.99	        -743.557
     150	 1.98289	 1.82528	        -3728.55	         2984.93	        -743.626
     151	 1.98096	 1.83184	        -3725.68	         2982.03	        -743.649
     152	 1.97818	 1.84078	         -3721.5	         2977.86	        -743.642
     153	 1.97462	 1.85191	        -3716.14	         2972.52	        -743.613
     154	 1.97062	 1.86401	         -3710.1	         2966.52	        -743.571
     155	 1.96675	 1.87507	        -3704.22	          2960.7	        -743.511
     156	 1.96377	  1.8823	        -3699.67	         2956.25	        -743.424
     157	 1.96271	 1.88214	        -3697.99	         2954.66	        -743.336
     158	 1.96445	 1.87144	        -3700.58	         2957.27	        -743.315
     159	 1.96915	 1.84968	        -3707.73	         2964.31	        -743.412
     160	 1.97583	 1.82049	        -3717.92	         2974.33	        -743.591
     161	 1.98272	 1.79036	        -3728.41	         2984.67	        -743.747
     162	 1.98825	 1.76519	        -3736.77	         2992.97	        -743.797
     163	 1.99174	 1.74761	        -3741.98	          2998.2	        -743.778
     164	 1.99316	 1.73787	         -3744.1	         3000.33	        -743.771
     165	 1.99254	 1.73609	        -3743.16	          2999.4	        -743.758
     166	 1.99003	 1.74192	        -3739.32	         2995.63	        -743.696
     167	 1.98623	 1.75333	        -3733.51	         2989.93	        -743.585
     168	 1.98219	 1.76666	        -3727.34	         2983.87	        -743.465
     169	 1.97903	 1.77796	        -3722.55	         2979.14	        -743.413
     170	 1.97726	 1.78537	        -3719.96	         2976.48	        -743.489
     171	 1.97631	 1.79079	         -3718.7	         2975.05	        -743.646
     172	 1.97506	 1.79824	        -3716.92	         2973.18	         -743.74
     173	 1.97291	 1.80973	        -3713.69	         2969.95	        -743.745
     174	 1.96988	 1.82467	        -3709.19	         2965.41	        -743.782
     175	 1.96595	 1.84293	         -3703.3	         2959.51	        -743.798
     176	 1.96131	 1.86358	        -3696.24	         2952.55	         -743.69
     177	  1.9571	 1.88218	        -3689.77	         2946.24	         -743.53
     178	 1.95493	 1.89274	        -3686.41	         2942.98	        -743.422
     179	 1.95593	  1.8911	         -3687.9	         2944.49	        -743.417
     180	 1.96017	 1.87695	        -3694.37	         2950.84	        -743.525
     181	  1.9666	 1.85397	        -3704.15	         2960.48	        -743.668
     182	 1.97376	 1.82745	        -3714.96	         2971.22	        -743.744
     183	 1.98065	 1.80098	         -3725.3	         2981.57	        -743.734
     184	 1.98702	 1.77563	        -3734.81	         2991.11	        -743.699
     185	 1.99286	 1.75148	        -3743.56	         2999.88	        -743.682
     186	 1.99815	  1.7289	        -3751.47	         3007.81	        -743.665
     187	  2.0029	 1.70805	        -3758.56	         3014.94	         -743.62
     188	 2.00734	 1.68837	        -3765.19	          3021.6	        -743.589
     189	 2.01149	 1.66983	        -3771.47	         3027.83	        -743.641
     190	 2.01479	  1.6547	        -3776.49	         3032.77	        -743.722
     191	 2.01649	 1.64583	        -3779.04	         3035.32	        -743.714
     192	 2.01662	 1.64328	        -3779.13	         3035.52	        -743.615
     193	 2.01599	 1.64409	        -3778.09	         3034.57	        -743.519
     194	 2.01546	 1.64521	        -3777.25	         3033.77	        -743.483
     195	 2.01534	 1.64544	        -3777.09	          3033.6	        -743.498
     196	 2.01544	  1.6453	        -3777.28	         3033.75	        -743.531
     197	 2.01539	 1.64594	        -3777.21	         3033.68	        -743.536
     198	 2.01504	 1.64777	        -3776.66	         3033.15	        -743.509
     199	 2.01451	 1.65022	        -3775.85	         3032.35	        -743.502
     200	 2.01377	 1.65328	        -3774.79	         3031.24	        -743.548
     201	 2.01248	 1.65828	         -3772.9	          3029.3	        -743.599
     202	 2.01029	 1.66648	        -3769.61	         3026.02	         -743.59
     203	 2.00742	 1.67719	        -3765.25	         3021.72	        -743.526
     204	 2.00454	 1.68798	        -3760.88	          3017.4	        -743.479
     205	 2.00219	 1.69693	        -3757.37	         3013.87	        -743.502
     206	 2.00034	 1.70415	        -3754.65	          3011.1	        -743.554
     207	 1.99873	 1.71072	        -3752.24	         3008.68	        -743.564
     208	 1.99738	 1.71664	        -3750.18	         3006.65	        -743.531
     209	 1.99662	 1.72078	        -3749.05	         3005.52	        -743.524
     210	 1.99657	  1.7229	        -3749.01	         3005.44	        -743.567
     211	 1.99686	 1.72448	         -3749.5	         3005.88	        -743.611
     212	 1.99697	 1.72748	        -3749.69	         3006.04	        -743.656
     213	 1.99621	 1.73413	        -3748.64	          3004.9	        -743.739
     214	 1.99367	 1.74755	        -3744.92	          3001.1	        -743.826
     215	 1.98852	 1.77043	        -3737.23	         2993.37	        -743.855
     216	 1.98063	 1.80296	        -3725.32	         2981.53	        -743.788
     217	 1.97094	 1.84142	        -3710.62	            2967	        -743.613
     218	 1.96155	 1.87819	        -3696.29	         2952.91	        -743.383
     219	 1.95496	 1.90396	        -3686.26	         2943.03	        -743.236
     220	 1.95287	 1.91247	        -3683.16	         2939.89	        -743.265
     221	 1.95527	 1.90367	        -3686.91	         2943.49	        -743.412
     222	 1.96085	 1.88226	        -3695.45	         2951.87	        -743.582
     223	 1.96781	 1.85465	        -3706.05	         2962.31	        -743.745
     224	 1.97435	 1.82733	        -3715.98	         2972.11	        -743.865
     225	 1.97918	  1.8052	        -3723.22	         2979.35	        -743.871
     226	 1.98214	 1.78916	        -3727.52	         2983.79	        -743.727
     227	 1.98447	  1.7752	        -3730.82	         2987.29	        -743.531
     228	 1.98771	 1.75799	        -3735.66	         2992.15	        -743.509
     229	 1.99194	 1.73751	        -3742.16	          2998.5	        -743.657
     230	 1.99585	  1.7189	         -3748.1	         3004.36	        -743.739
     231	 1.99852	 1.70551	        -3752.05	         3008.37	        -743.678
     232	 2.00034	 1.69606	        -3754.65	         3011.09	        -743.558
     233	 2.00225	 1.68719	        -3757.46	         3013.96	        -743.507
     234	 2.00459	 1.67767	        -3761.09	         3017.48	        -743.611
     235	 2.00635	 1.67108	        -3763.93	         3020.11	        -743.814
     236	 2.00564	 1.67391	        -3763.01	         3019.05	        -743.955
     237	 2.00117	 1.69054	        -3756.28	         3012.34	        -743.938
     238	 1.99316	 1.71981	        -3744.09	         3000.32	         -743.77
     239	 1.98337	 1.75518	        -3729.16	         2985.64	        -743.517
     240	 1.97448	 1.78702	        -3715.57	         2972.31	        -743.264
     241	 1.96914	 1.80578	         -3707.4	         2964.29	        -743.106
     242	 1.96905	 1.80532	        -3707.25	         2964.17	        -743.084
     243	 1.97464	 1.78443	         -3715.7	         2972.55	        -743.148
     244	 1.98516	 1.74592	        -3731.65	         2988.32	        -743.329
     245	 1.99848	 1.69744	        -3751.97	         3008.31	        -743.664
     246	 2.01114	 1.65174	        -3771.28	          3027.3	        -743.975
     247	 2.01981	 1.62094	        -3784.43	          3040.3	        -744.122
     248	 2.02268	 1.61153	        -3788.72	          3044.6	        -744.113
     249	 2.01968	 1.62375	        -3784.09	         3040.11	        -743.974
     250	 2.01224	 1.65259	        -3772.69	         3028.94	        -743.748
     251	 2.00273	  1.6894	        -3758.18	         3014.69	        -743.487
     252	 1.99395	 1.72417	        -3744.76	         3001.51	         -743.25
     253	 1.98831	   1.748	        -3736.18	         2993.06	        -743.117
     254	 1.98716	 1.75598	        -3734.47	         2991.33	        -743.142
