    Step 	 temperature 	 pressure 	 Potential Energy 	 Kinetic Energy 	 Sum Energy

       0	 1.58373	0.0644335	         -650.63	          2376.5	         1725.87
       1	 1.58386	0.0643961	        -650.822	         2376.69	         1725.87
       2	 1.58424	0.0642851	        -651.395	         2377.26	         1725.87
       3	 1.58488	0.0641007	        -652.351	         2378.22	         1725.87
       4	 1.58577	0.0638435	         -653.69	         2379.56	         1725.87
       5	 1.58692	0.0635139	        -655.417	         2381.29	         1725.87
       6	 1.58834	0.0631129	        -657.535	          2383.4	         1725.87
       7	 1.59001	0.0626416	        -660.049	         2385.92	         1725.87
       8	 1.59196	0.0621018	        -662.966	         2388.84	         1725.87
       9	 1.59418	0.0614957	        -666.292	         2392.16	         1725.87
      10	 1.59667	0.0608264	        -670.034	         2395.91	         1725.87
      11	 1.59945	0.0600984	        -674.201	         2400.07	         1725.87
      12	 1.60252	0.0593173	          -678.8	         2404.67	         1725.87
      13	 1.60588	0.0584915	        -683.839	         2409.71	         1725.87
      14	 1.60953	0.057632	        -689.324	          2415.2	         1725.87
      15	 1.61349	0.0567542	        -695.257	         2421.13	         1725.87
      16	 1.61774	0.0558794	        -701.637	         2427.51	         1725.87
      17	 1.62228	0.0550372	        -708.455	         2434.33	         1725.87
      18	 1.62711	0.0542692	        -715.691	         2441.56	         1725.87
      19	 1.63218	0.0536333	        -723.304	         2449.16	         1725.86
      20	 1.63745	0.0532109	        -731.227	         2457.08	         1725.85
      21	 1.64286	0.0531151	        -739.352	         2465.19	         1725.84
      22	 1.64829	0.0535009	        -747.517	         2473.34	         1725.82
      23	 1.65359	0.0545722	        -755.489	         2481.28	         1725.79
      24	 1.65855	0.0565765	        -762.969	         2488.73	         1725.76
      25	 1.66298	0.0597665	        -769.635	         2495.37	         1725.73
      26	 1.66673	0.0642987	        -775.276	            2501	         1725.72
      27	 1.66991	0.0700681	        -780.016	         2505.76	         1725.75
      28	 1.67291	0.0765931	        -784.475	         2510.27	         1725.79
      29	  1.6763	0.0831985	        -789.537	         2515.35	         1725.81
      30	 1.68034	0.0895438	         -795.64	          2521.4	         1725.76
      31	 1.68472	0.095975	        -802.304	         2527.98	         1725.68
      32	  1.6888	0.103257	         -808.49	          2534.1	         1725.61
      33	 1.69194	0.112076	        -813.255	         2538.81	         1725.56
      34	  1.6938	0.122808	        -816.056	          2541.6	         1725.54
      35	 1.69429	0.135474	        -816.786	         2542.34	         1725.55
      36	 1.69368	 0.14971	         -815.82	         2541.41	         1725.59
      37	 1.69251	0.164777	        -814.007	         2539.66	         1725.66
      38	 1.69155	0.179699	          -812.5	         2538.22	         1725.72
      39	 1.69153	0.193513	        -812.438	          2538.2	         1725.76
      40	 1.69296	0.205565	        -814.577	         2540.34	         1725.76
      41	 1.69592	 0.21569	        -819.047	         2544.77	         1725.72
      42	  1.7001	0.224202	        -825.377	         2551.04	         1725.67
      43	 1.70498	 0.23169	        -832.759	         2558.37	         1725.61
      44	 1.71005	0.238752	        -840.396	         2565.98	         1725.58
      45	 1.71497	0.245782	        -847.779	         2573.35	         1725.57
      46	 1.71967	 0.25287	        -854.804	          2580.4	         1725.59
      47	  1.7243	0.259836	        -861.724	         2587.35	         1725.63
      48	 1.72915	0.266368	        -868.974	         2594.62	         1725.65
      49	 1.73445	0.272201	        -876.919	         2602.57	         1725.65
      50	 1.74023	  0.2773	        -885.624	         2611.25	         1725.63
      51	 1.74625	0.281963	        -894.708	         2620.27	         1725.57
      52	 1.75198	0.286789	        -903.377	         2628.87	         1725.49
      53	 1.75684	 0.29245	        -910.715	         2636.16	         1725.44
      54	  1.7605	0.299311	        -916.192	         2641.65	         1725.45
      55	 1.76324	0.307025	        -920.209	         2645.75	         1725.54
      56	 1.76604	0.314399	        -924.293	         2649.96	         1725.67
      57	 1.77017	0.319924	         -930.42	         2656.16	         1725.74
      58	 1.77623	0.322847	        -939.568	         2665.25	         1725.68
      59	  1.7837	0.323802	        -950.891	         2676.45	         1725.55
      60	 1.79138	0.324222	        -962.502	         2687.97	         1725.46
      61	 1.79828	0.325288	        -972.876	         2698.32	         1725.44
      62	   1.804	0.327477	        -981.439	          2706.9	         1725.46
      63	 1.80857	0.330759	        -988.278	         2713.76	         1725.48
      64	 1.81213	0.334974	        -993.614	          2719.1	         1725.48
      65	 1.81475	0.340031	         -997.54	         2723.02	         1725.48
      66	 1.81647	0.345839	        -1000.12	         2725.61	         1725.49
      67	 1.81752	0.352106	        -1001.65	         2727.18	         1725.53
      68	 1.81835	0.358234	        -1002.85	         2728.43	         1725.58
      69	 1.81959	 0.36346	        -1004.66	         2730.28	         1725.62
      70	 1.82167	0.367198	        -1007.79	         2733.41	         1725.62
      71	 1.82467	0.369351	        -1012.33	          2737.9	         1725.57
      72	 1.82821	0.370338	        -1017.71	         2743.21	          1725.5
      73	 1.83175	0.370794	        -1023.07	         2748.53	         1725.46
      74	 1.83496	0.371139	        -1027.88	         2753.34	         1725.46
      75	 1.83798	0.371231	        -1032.35	         2757.87	         1725.52
      76	 1.84139	0.370416	        -1037.42	         2762.99	         1725.57
      77	  1.8457	0.368128	        -1043.87	         2769.45	         1725.58
      78	   1.851	0.364329	        -1051.84	          2777.4	         1725.57
      79	 1.85708	0.359325	        -1060.97	         2786.52	         1725.55
      80	 1.86362	0.353533	         -1070.8	         2796.33	         1725.53
      81	 1.87025	0.347465	        -1080.76	         2806.27	         1725.51
      82	 1.87655	0.341652	        -1090.23	         2815.72	         1725.49
      83	  1.8822	0.336544	        -1098.72	          2824.2	         1725.48
      84	 1.88695	0.332485	        -1105.86	         2831.32	         1725.46
      85	 1.89063	0.329711	        -1111.39	         2836.84	         1725.46
      86	 1.89315	0.328348	        -1115.17	         2840.62	         1725.45
      87	 1.89448	0.328421	        -1117.18	         2842.62	         1725.45
      88	 1.89473	0.329806	        -1117.53	            2843	         1725.47
      89	 1.89426	0.332073	        -1116.76	         2842.29	         1725.53
      90	 1.89385	0.334286	        -1116.05	         2841.68	         1725.63
      91	 1.89454	 0.33521	        -1117.01	          2842.7	         1725.69
      92	 1.89689	0.334126	        -1120.59	         2846.24	         1725.65
      93	  1.9006	 0.33144	        -1126.24	          2851.8	         1725.56
      94	 1.90478	0.328215	        -1132.57	         2858.07	          1725.5
      95	 1.90871	0.325324	        -1138.48	         2863.96	         1725.48
      96	 1.91205	 0.32318	        -1143.49	         2868.97	         1725.48
      97	 1.91467	0.321951	        -1147.42	          2872.9	         1725.47
      98	 1.91643	0.321819	        -1150.09	         2875.54	         1725.45
      99	  1.9171	0.323055	        -1151.13	         2876.55	         1725.42
     100	 1.91648	0.325876	        -1150.21	         2875.62	         1725.41
     101	 1.91465	0.330169	        -1147.43	         2872.88	         1725.46
     102	 1.91217	 0.33524	        -1143.62	         2869.16	         1725.54
     103	 1.90988	0.340032	        -1140.13	         2865.72	         1725.59
     104	 1.90828	0.343882	        -1137.75	         2863.31	         1725.57
     105	 1.90732	 0.34683	        -1136.33	         2861.88	         1725.55
     106	 1.90695	0.348937	        -1135.72	         2861.32	          1725.6
     107	 1.90753	0.349727	        -1136.53	         2862.19	         1725.67
     108	 1.90961	0.348548	        -1139.63	         2865.32	         1725.69
     109	  1.9133	0.345281	        -1145.21	         2870.85	         1725.64
     110	 1.91805	0.340595	        -1152.43	         2877.98	         1725.55
     111	 1.92297	0.335591	        -1159.88	         2885.35	         1725.47
     112	 1.92724	0.331256	        -1166.31	         2891.75	         1725.44
     113	 1.93046	0.328095	        -1171.13	         2896.59	         1725.45
     114	 1.93271	 0.32606	        -1174.46	         2899.96	          1725.5
     115	 1.93437	0.324721	        -1176.91	         2902.46	         1725.55
     116	 1.93587	0.323611	        -1179.14	          2904.7	         1725.56
     117	 1.93731	0.322607	        -1181.33	         2906.86	         1725.53
     118	 1.93842	0.322039	        -1183.05	         2908.52	         1725.48
     119	 1.93879	0.322385	        -1183.64	         2909.09	         1725.45
     120	 1.93826	0.323847	        -1182.83	         2908.29	         1725.47
     121	 1.93704	0.326156	        -1180.95	         2906.45	         1725.51
     122	 1.93556	0.328768	         -1178.7	         2904.23	         1725.54
     123	 1.93414	0.331275	        -1176.58	         2902.11	         1725.52
     124	 1.93278	0.333657	        -1174.58	         2900.07	         1725.49
     125	 1.93129	0.336114	        -1172.35	         2897.84	         1725.49
     126	 1.92971	0.338593	        -1169.92	         2895.46	         1725.53
     127	 1.92842	0.340578	        -1167.94	         2893.53	         1725.59
     128	 1.92795	0.341447	        -1167.21	         2892.83	         1725.62
     129	 1.92846	0.341012	        -1167.99	         2893.58	         1725.59
     130	 1.92965	0.339614	        -1169.82	         2895.38	         1725.55
     131	 1.93111	 0.33778	        -1172.04	         2897.57	         1725.53
     132	 1.93251	0.335909	        -1174.15	         2899.67	         1725.52
     133	 1.93369	0.334208	        -1175.92	         2901.44	         1725.52
     134	 1.93461	0.332764	        -1177.29	         2902.81	         1725.51
     135	  1.9352	0.331644	         -1178.2	          2903.7	          1725.5
     136	 1.93541	0.330943	        -1178.54	         2904.02	         1725.48
     137	  1.9352	0.330704	        -1178.22	          2903.7	         1725.48
     138	 1.93469	0.330783	        -1177.43	         2902.93	          1725.5
     139	 1.93422	0.330762	        -1176.68	         2902.22	         1725.54
     140	 1.93428	0.330058	        -1176.73	         2902.31	         1725.58
     141	 1.93528	0.328181	        -1178.23	         2903.82	          1725.6
     142	 1.93738	 0.32498	        -1181.39	         2906.97	         1725.58
     143	 1.94039	0.320692	        -1185.93	         2911.48	         1725.55
     144	 1.94397	0.315768	        -1191.33	         2916.85	         1725.52
     145	  1.9477	0.310712	        -1196.97	         2922.46	         1725.49
     146	 1.95112	0.306121	        -1202.13	         2927.57	         1725.44
     147	 1.95366	0.302682	        -1205.97	         2931.38	         1725.41
     148	 1.95497	0.300849	        -1207.92	         2933.35	         1725.43
     149	 1.95512	0.300562	        -1208.09	         2933.58	         1725.48
     150	 1.95445	0.301402	        -1207.06	         2932.58	         1725.52
     151	 1.95324	0.303033	        -1205.25	         2930.76	         1725.51
     152	 1.95145	0.305465	         -1202.6	         2928.08	         1725.48
     153	 1.94888	0.308913	        -1198.76	         2924.22	         1725.46
     154	 1.94547	0.313408	        -1193.62	         2919.11	         1725.49
     155	  1.9416	0.318467	        -1187.73	         2913.29	         1725.56
     156	 1.93804	0.323125	        -1182.32	         2907.95	         1725.63
     157	 1.93555	0.326439	        -1178.58	         2904.23	         1725.65
     158	 1.93437	0.328121	        -1176.86	         2902.46	         1725.59
     159	 1.93408	0.328648	        -1176.51	         2902.03	         1725.52
     160	  1.9341	0.328714	        -1176.57	         2902.05	         1725.49
     161	 1.93417	0.328626	        -1176.65	         2902.16	         1725.51
     162	 1.93452	0.328132	        -1177.11	         2902.67	         1725.56
     163	 1.93561	0.326692	        -1178.72	         2904.31	          1725.6
     164	 1.93781	 0.32392	        -1182.02	         2907.61	          1725.6
     165	  1.9411	0.319879	        -1186.99	         2912.55	         1725.56
     166	 1.94507	  0.3151	           -1193	          2918.5	         1725.49
     167	 1.94908	 0.31038	        -1199.07	         2924.51	         1725.45
     168	 1.95264	0.306366	        -1204.41	         2929.86	         1725.45
     169	 1.95567	0.303223	        -1208.92	          2934.4	         1725.48
     170	 1.95825	0.300863	         -1212.8	         2938.27	         1725.47
     171	 1.96021	0.299537	         -1215.8	         2941.21	         1725.41
     172	 1.96097	0.299943	        -1217.01	         2942.36	         1725.35
     173	 1.95999	 0.30274	        -1215.55	         2940.89	         1725.34
     174	 1.95712	0.308069	         -1211.2	         2936.57	         1725.38
     175	 1.95278	0.315372	         -1204.6	         2930.06	         1725.46
     176	 1.94787	0.323524	        -1197.15	          2922.7	         1725.56
     177	 1.94336	  0.3313	        -1190.33	         2915.94	         1725.61
     178	 1.93983	0.337926	        -1185.05	         2910.65	          1725.6
     179	 1.93736	0.343253	        -1181.36	         2906.93	         1725.57
     180	 1.93571	0.347475	        -1178.92	         2904.47	         1725.55
     181	 1.93469	0.350786	        -1177.39	         2902.94	         1725.54
     182	 1.93422	0.353241	        -1176.68	         2902.23	         1725.55
     183	 1.93431	0.354814	         -1176.8	         2902.36	         1725.55
     184	 1.93493	0.355518	        -1177.74	         2903.29	         1725.55
     185	 1.93599	0.355474	        -1179.34	         2904.88	         1725.54
     186	 1.93735	0.354849	        -1181.39	         2906.93	         1725.54
     187	 1.93894	0.353747	        -1183.77	         2909.31	         1725.54
     188	 1.94072	0.352221	        -1186.44	         2911.98	         1725.53
     189	 1.94259	0.350396	        -1189.27	         2914.79	         1725.51
     190	 1.94436	0.348527	        -1191.95	         2917.44	         1725.49
     191	 1.94581	0.346895	        -1194.15	         2919.62	         1725.47
     192	 1.94687	0.345619	        -1195.72	          2921.2	         1725.48
     193	 1.94758	0.344637	        -1196.79	         2922.27	         1725.48
     194	 1.94798	0.343925	        -1197.41	         2922.87	         1725.46
     195	 1.94792	0.343661	        -1197.35	         2922.78	         1725.44
     196	  1.9473	 0.34398	        -1196.39	         2921.85	         1725.46
     197	 1.94634	 0.34461	        -1194.89	         2920.41	         1725.52
     198	 1.94562	0.344869	        -1193.75	         2919.33	         1725.59
     199	 1.94579	0.343998	        -1193.95	         2919.58	         1725.63
     200	 1.94723	 0.34154	        -1196.12	         2921.75	         1725.63
     201	 1.94994	0.337542	        -1200.22	         2925.81	         1725.59
     202	 1.95347	0.332542	        -1205.58	          2931.1	         1725.52
     203	 1.95715	0.327352	        -1211.16	         2936.62	         1725.46
     204	 1.96031	0.322787	        -1215.95	         2941.36	         1725.41
     205	 1.96245	0.319452	        -1219.18	         2944.58	         1725.39
     206	 1.96344	0.317542	        -1220.63	         2946.06	         1725.43
     207	 1.96361	0.316683	        -1220.82	         2946.32	          1725.5
     208	 1.96367	0.316063	        -1220.84	         2946.41	         1725.57
     209	 1.96426	0.314934	         -1221.7	         2947.28	         1725.58
     210	 1.96554	0.313104	        -1223.67	         2949.22	         1725.55
     211	 1.96725	0.310935	        -1226.26	         2951.77	          1725.5
     212	 1.96894	 0.30893	        -1228.84	         2954.31	         1725.48
     213	 1.97041	0.307368	        -1231.03	         2956.51	         1725.48
     214	 1.97163	0.306253	        -1232.86	         2958.35	         1725.49
     215	 1.97273	0.305475	         -1234.5	            2960	          1725.5
     216	 1.97381	0.304917	        -1236.11	         2961.61	          1725.5
     217	 1.97491	0.304533	        -1237.77	         2963.27	          1725.5
     218	 1.97596	0.304426	        -1239.36	         2964.84	         1725.48
     219	 1.97677	0.304837	        -1240.58	         2966.05	         1725.46
     220	 1.97712	 0.30601	        -1241.13	         2966.58	         1725.46
     221	  1.9769	0.308102	         -1240.8	         2966.25	         1725.45
     222	 1.97602	  0.3112	        -1239.49	         2964.93	         1725.44
     223	 1.97442	0.315355	         -1237.1	         2962.53	         1725.44
     224	 1.97207	0.320587	        -1233.58	            2959	         1725.42
     225	 1.96894	0.326862	         -1228.9	         2954.31	         1725.41
     226	 1.96511	0.334045	        -1223.15	         2948.56	         1725.42
     227	 1.96083	0.341772	        -1216.69	         2942.14	         1725.46
     228	 1.95678	0.349216	         -1210.5	         2936.06	         1725.56
     229	 1.95416	0.354904	        -1206.45	         2932.14	         1725.69
     230	 1.95417	0.357372	        -1206.45	         2932.15	          1725.7
     231	 1.95682	0.356548	        -1210.56	         2936.13	         1725.57
     232	 1.96094	0.353866	        -1216.85	          2942.3	         1725.45
     233	 1.96522	0.350867	        -1223.32	         2948.73	         1725.41
     234	 1.96901	0.348331	        -1228.99	         2954.41	         1725.43
     235	 1.97219	0.346414	        -1233.73	         2959.18	         1725.45
     236	 1.97488	0.345026	        -1237.75	         2963.22	         1725.48
     237	  1.9772	0.344088	        -1241.21	         2966.69	         1725.48
     238	 1.97911	0.343658	         -1244.1	         2969.56	         1725.46
     239	 1.98043	0.343985	        -1246.12	         2971.55	         1725.43
     240	 1.98083	0.345473	        -1246.75	         2972.14	         1725.39
     241	 1.97996	0.348513	        -1245.47	         2970.83	         1725.36
     242	 1.97768	0.353244	        -1242.05	         2967.42	         1725.38
     243	 1.97421	0.359382	         -1236.8	         2962.22	         1725.42
     244	 1.97008	0.366253	        -1230.54	         2956.02	         1725.48
     245	 1.96593	0.373054	        -1224.27	         2949.79	         1725.52
     246	 1.96218	 0.37921	        -1218.66	         2944.17	         1725.51
     247	 1.95884	0.384658	         -1213.7	         2939.15	         1725.45
     248	 1.95547	0.389828	        -1208.73	          2934.1	         1725.38
     249	 1.95161	0.395213	        -1202.95	         2928.31	         1725.35
     250	 1.94728	0.400708	        -1196.39	         2921.82	         1725.43
     251	 1.94346	0.405154	        -1190.49	         2916.09	          1725.6
     252	  1.9419	0.406455	        -1187.98	         2913.75	         1725.78
     253	 1.94432	0.402596	        -1191.55	         2917.38	         1725.82
