    Step 	 temperature 	 pressure 	 Potential Energy 	 Kinetic Energy 	 Sum Energy

       0	  2.1705	-1.56143	        -9389.83	         8934.58	        -455.251
       1	 2.17057	-1.55797	        -9390.16	         8934.88	         -455.28
       2	 2.17072	-1.54737	        -9390.84	          8935.5	        -455.349
       3	 2.17074	-1.52898	        -9391.05	         8935.58	         -455.47
       4	 2.17027	-1.50171	        -9389.31	         8933.65	        -455.656
       5	 2.16876	-1.46391	        -9383.36	         8927.44	        -455.927
       6	 2.16541	-1.41326	        -9369.96	         8913.65	        -456.307
       7	 2.15912	-1.34662	        -9344.56	         8887.74	        -456.819
       8	 2.14842	-1.25999	        -9301.19	         8843.73	        -457.461
       9	 2.13161	-1.14878	        -9232.69	         8774.54	         -458.15
      10	 2.10708	 -1.0089	         -9132.2	         8673.54	        -458.663
      11	 2.07409	-0.839028	        -8996.48	         8537.76	        -458.721
      12	 2.03359	-0.643002	         -8829.4	         8371.07	        -458.332
      13	 1.98801	-0.429332	        -8641.27	         8183.47	        -457.797
      14	 1.94036	-0.208205	        -8444.53	         7987.35	        -457.187
      15	 1.89379	0.0097955	         -8252.1	         7795.65	        -456.449
      16	 1.85151	0.213823	         -8077.4	         7621.62	        -455.783
      17	 1.81619	0.394717	        -7931.69	         7476.27	        -455.421
      18	 1.78932	0.547154	        -7821.03	         7365.66	        -455.362
      19	 1.77113	0.669711	        -7746.27	          7290.8	        -455.467
      20	 1.76109	0.763501	         -7705.1	         7249.46	        -455.636
      21	 1.75827	 0.83101	        -7693.72	         7237.87	        -455.849
      22	 1.76154	0.875633	        -7707.44	         7251.31	        -456.126
      23	 1.76951	0.901638	        -7740.59	         7284.12	        -456.476
      24	 1.78061	0.914023	        -7786.65	          7329.8	        -456.852
      25	 1.79326	0.917883	        -7839.04	         7381.88	        -457.162
      26	 1.80623	0.917395	        -7892.56	         7435.24	        -457.315
      27	 1.81888	0.914931	        -7944.62	         7487.31	        -457.313
      28	 1.83116	0.911117	        -7995.14	         7537.87	        -457.264
      29	 1.84326	0.905893	        -8044.93	         7587.68	         -457.25
      30	 1.85526	0.899436	        -8094.37	         7637.05	        -457.322
      31	  1.8669	0.892745	        -8142.52	            7685	        -457.525
      32	 1.87755	0.887967	        -8186.61	         7728.82	        -457.789
      33	 1.88641	0.887591	        -8223.23	         7765.29	        -457.938
      34	 1.89313	0.892758	        -8250.81	         7792.95	        -457.861
      35	 1.89816	 0.90219	        -8271.25	         7813.62	        -457.629
      36	 1.90242	0.913031	        -8288.68	         7831.18	          -457.5
      37	 1.90658	 0.92326	         -8305.9	         7848.32	        -457.579
      38	  1.9107	0.932738	        -8322.93	         7865.26	        -457.667
      39	 1.91467	0.941688	        -8339.28	         7881.58	        -457.699
      40	 1.91849	0.949964	        -8355.06	         7897.34	        -457.724
      41	 1.92229	0.957285	        -8370.66	         7912.97	        -457.689
      42	 1.92634	0.962871	        -8387.23	         7929.63	          -457.6
      43	 1.93103	0.965616	        -8406.52	         7948.95	        -457.574
      44	 1.93652	0.965166	        -8429.23	         7971.53	        -457.696
      45	  1.9424	0.962805	         -8453.7	         7995.72	        -457.982
      46	  1.9477	0.961458	        -8475.83	         8017.56	        -458.267
      47	 1.95152	0.963992	        -8491.57	         8033.27	        -458.303
      48	 1.95372	0.970845	         -8500.4	         8042.34	        -458.055
      49	 1.95514	0.979637	         -8505.9	         8048.18	        -457.726
      50	 1.95689	 0.98712	        -8512.93	         8055.36	         -457.57
      51	 1.95955	0.991656	        -8523.96	         8066.31	         -457.65
      52	 1.96291	0.993972	        -8538.02	         8080.16	         -457.86
      53	 1.96624	0.996309	        -8551.99	         8093.84	        -458.151
      54	 1.96848	 1.00175	        -8561.54	         8103.07	         -458.47
      55	 1.96859	  1.0134	        -8562.21	         8103.55	        -458.668
      56	 1.96601	 1.03296	        -8551.58	         8092.91	        -458.668
      57	 1.96088	 1.05985	        -8530.31	         8071.78	         -458.53
      58	 1.95393	 1.09174	        -8501.51	          8043.2	        -458.311
      59	 1.94629	 1.12519	        -8469.79	         8011.76	        -458.031
      60	 1.93928	 1.15608	        -8440.67	          7982.9	        -457.769
      61	 1.93412	 1.18058	        -8419.29	         7961.67	        -457.613
      62	 1.93164	 1.19612	        -8409.01	         7951.44	        -457.571
      63	 1.93215	  1.2017	        -8411.15	         7953.55	        -457.597
      64	 1.93561	 1.19748	        -8425.48	         7967.79	        -457.689
      65	 1.94151	 1.18495	        -8450.06	         7992.07	        -457.991
      66	 1.94861	 1.16789	         -8479.7	         8021.31	        -458.396
      67	 1.95539	 1.15109	        -8507.78	          8049.2	        -458.576
      68	 1.96091	 1.13741	        -8530.49	          8071.9	        -458.587
      69	 1.96485	 1.12786	        -8546.71	         8088.14	        -458.573
      70	  1.9672	 1.12269	        -8556.31	         8097.83	        -458.481
      71	 1.96825	 1.12115	        -8560.44	         8102.11	        -458.329
      72	 1.96849	 1.12175	        -8561.29	          8103.1	         -458.19
      73	 1.96842	 1.12299	        -8560.96	         8102.83	        -458.123
      74	 1.96833	 1.12403	        -8560.59	         8102.48	         -458.11
      75	 1.96833	 1.12449	        -8560.57	         8102.47	        -458.104
      76	 1.96846	  1.1242	        -8561.13	            8103	        -458.128
      77	 1.96867	 1.12321	        -8562.06	         8103.86	        -458.205
      78	 1.96881	 1.12197	        -8562.63	         8104.42	        -458.212
      79	   1.969	 1.12017	        -8563.21	         8105.22	        -457.991
      80	 1.96999	 1.11562	        -8567.01	         8109.28	        -457.735
      81	 1.97253	 1.10607	        -8577.44	         8119.73	        -457.705
      82	 1.97665	 1.09154	        -8594.58	         8136.71	        -457.871
      83	 1.98162	 1.07433	        -8615.32	         8157.17	        -458.156
      84	 1.98626	 1.05801	        -8634.72	         8176.26	        -458.461
      85	 1.98935	  1.0463	        -8647.64	         8188.97	        -458.675
      86	 1.99006	 1.04178	        -8650.57	         8191.89	        -458.685
      87	 1.98836	 1.04461	        -8643.34	         8184.92	        -458.428
      88	 1.98516	 1.05218	         -8629.8	         8171.73	        -458.068
      89	  1.9817	 1.06067	        -8615.35	          8157.5	        -457.845
      90	 1.97892	 1.06732	        -8603.77	         8146.05	        -457.724
      91	 1.97737	 1.07039	        -8597.31	         8139.68	        -457.633
      92	  1.9774	 1.06873	        -8597.47	         8139.81	        -457.657
      93	   1.979	 1.06236	        -8604.13	         8146.37	        -457.762
      94	 1.98185	 1.05226	        -8615.97	          8158.1	        -457.864
      95	 1.98549	 1.03978	        -8631.17	         8173.11	        -458.058
      96	 1.98916	  1.0273	        -8646.51	         8188.19	        -458.315
      97	 1.99187	 1.01778	        -8657.83	         8199.34	        -458.491
      98	 1.99291	 1.01339	        -8662.18	         8203.64	        -458.536
      99	 1.99212	 1.01469	        -8658.79	         8200.36	        -458.426
     100	 1.98989	 1.02055	        -8649.41	          8191.2	         -458.21
     101	 1.98702	 1.02862	        -8637.41	         8179.39	         -458.02
     102	 1.98423	 1.03674	        -8625.86	         8167.92	         -457.94
     103	 1.98188	 1.04379	        -8616.22	         8158.24	        -457.982
     104	 1.97991	 1.04985	        -8608.21	         8150.12	        -458.085
     105	 1.97807	 1.05557	        -8600.71	         8142.56	        -458.145
     106	 1.97627	 1.06119	        -8593.27	         8135.15	        -458.121
     107	  1.9747	 1.06615	        -8586.74	          8128.7	        -458.044
     108	 1.97373	 1.06938	         -8582.7	          8124.7	        -457.998
     109	 1.97357	  1.0703	        -8582.12	         8124.03	         -458.09
     110	 1.97394	 1.06971	        -8583.86	         8125.56	        -458.304
     111	 1.97415	  1.0697	         -8584.9	         8126.42	        -458.484
     112	 1.97357	 1.07208	        -8582.53	         8124.03	        -458.498
     113	 1.97212	 1.07703	        -8576.38	         8118.07	         -458.31
     114	 1.97041	 1.08276	        -8569.02	            8111	        -458.016
     115	 1.96932	 1.08651	         -8564.4	         8106.54	        -457.861
     116	 1.96931	 1.08689	        -8564.49	          8106.5	        -457.991
     117	 1.96994	 1.08517	        -8567.32	         8109.09	        -458.232
     118	 1.97041	 1.08371	        -8569.37	         8111.03	        -458.338
     119	 1.97035	 1.08355	        -8569.02	         8110.79	        -458.232
     120	 1.97012	 1.08359	        -8567.83	         8109.84	        -457.998
     121	 1.97052	 1.08144	         -8569.3	         8111.49	        -457.814
     122	  1.9722	 1.07523	        -8576.18	         8118.37	        -457.814
     123	 1.97516	 1.06492	        -8588.54	         8130.57	        -457.975
     124	 1.97887	 1.05221	           -8604	         8145.83	        -458.172
     125	 1.98262	 1.03918	        -8619.57	         8161.29	         -458.28
     126	 1.98598	 1.02722	        -8633.41	          8175.1	        -458.315
     127	 1.98872	 1.01694	        -8644.75	         8186.38	        -458.375
     128	 1.99068	 1.00894	        -8652.81	         8194.45	        -458.358
     129	 1.99206	 1.00285	        -8658.23	         8200.12	        -458.107
     130	 1.99359	 0.99642	        -8664.41	         8206.43	        -457.984
     131	 1.99557	0.988764	        -8672.79	         8214.58	        -458.211
     132	 1.99736	0.982025	        -8680.25	         8221.93	        -458.319
     133	 1.99848	0.977622	         -8684.8	         8226.55	        -458.242
     134	 1.99902	0.975247	        -8686.98	         8228.77	        -458.205
     135	 1.99908	0.974653	        -8687.26	         8229.01	        -458.243
     136	 1.99856	0.976166	        -8685.18	         8226.87	        -458.312
     137	 1.99728	0.980319	        -8679.97	         8221.61	        -458.361
     138	 1.99515	0.987357	        -8671.21	         8212.85	        -458.363
     139	 1.99227	0.996943	        -8659.31	         8200.99	        -458.322
     140	 1.98895	 1.00814	        -8645.55	         8187.34	        -458.215
     141	 1.98572	 1.01938	        -8632.13	         8174.03	        -458.098
     142	 1.98305	 1.02917	        -8621.16	         8163.04	        -458.112
     143	   1.981	 1.03734	        -8612.81	         8154.61	          -458.2
     144	 1.97937	 1.04452	         -8606.1	         8147.91	        -458.197
     145	 1.97812	  1.0508	         -8600.9	         8142.74	        -458.166
     146	 1.97723	 1.05609	        -8597.32	          8139.1	        -458.215
     147	 1.97652	 1.06099	        -8594.44	         8136.16	        -458.285
     148	 1.97569	 1.06625	        -8591.09	         8132.75	         -458.34
     149	 1.97456	 1.07232	        -8586.46	         8128.12	         -458.34
     150	 1.97322	 1.07892	         -8580.8	         8122.58	        -458.227
     151	  1.9721	 1.08464	        -8576.02	         8117.98	        -458.033
     152	 1.97187	 1.08744	        -8574.96	         8117.04	        -457.918
     153	 1.97286	 1.08623	        -8579.13	         8121.12	        -458.007
     154	 1.97474	 1.08196	        -8587.06	         8128.85	        -458.211
     155	 1.97675	 1.07688	        -8595.48	          8137.1	        -458.374
     156	 1.97823	  1.0729	        -8601.66	         8143.22	        -458.442
     157	 1.97891	 1.07086	        -8604.46	         8146.02	        -458.431
     158	  1.9789	 1.07054	         -8604.3	         8145.96	        -458.347
     159	 1.97869	 1.07065	        -8603.21	         8145.08	        -458.125
     160	 1.97926	 1.06849	         -8605.3	         8147.45	        -457.844
     161	 1.98154	 1.06131	        -8614.78	         8156.84	        -457.944
     162	  1.9852	 1.05025	        -8630.25	         8171.89	        -458.358
     163	 1.98881	 1.03974	        -8645.42	         8186.78	        -458.639
     164	 1.99114	 1.03351	        -8655.06	         8196.34	         -458.72
     165	 1.99161	 1.03327	        -8656.91	         8198.29	        -458.626
     166	 1.99034	 1.03875	        -8651.48	         8193.05	        -458.435
     167	  1.9878	 1.04849	        -8640.91	         8182.61	        -458.303
     168	 1.98442	  1.0612	        -8626.92	         8168.68	        -458.244
     169	 1.98046	 1.07597	        -8610.54	         8152.37	        -458.165
     170	 1.97625	 1.09165	        -8593.13	         8135.08	        -458.055
     171	 1.97228	 1.10663	        -8576.67	         8118.72	        -457.952
     172	 1.96903	 1.11931	        -8563.19	         8105.34	        -457.849
     173	   1.967	 1.12813	        -8554.72	         8096.97	         -457.75
     174	 1.96661	 1.13175	        -8553.07	         8095.37	        -457.704
     175	 1.96806	 1.12955	         -8559.1	         8101.36	        -457.736
     176	 1.97122	   1.122	        -8572.24	         8114.37	        -457.875
     177	  1.9755	 1.11085	        -8590.12	         8131.97	        -458.154
     178	 1.97983	 1.09926	         -8608.3	         8149.79	        -458.507
     179	 1.98299	 1.09094	        -8621.54	          8162.8	        -458.735
     180	 1.98425	 1.08811	        -8626.68	         8167.99	        -458.693
     181	 1.98382	 1.09018	        -8624.67	         8166.22	        -458.444
     182	 1.98266	 1.09433	        -8619.61	         8161.44	         -458.17
     183	 1.98183	 1.09743	        -8616.04	         8158.04	        -458.006
     184	 1.98196	 1.09765	         -8616.6	         8158.56	        -458.039
     185	 1.98292	 1.09535	        -8620.73	         8162.53	        -458.191
     186	 1.98412	 1.09239	        -8625.76	         8167.44	        -458.327
     187	 1.98485	 1.09077	        -8628.88	         8170.44	        -458.438
     188	 1.98452	 1.09225	        -8627.63	         8169.12	         -458.51
     189	 1.98277	 1.09796	        -8620.38	          8161.9	        -458.486
     190	  1.9796	 1.10782	         -8607.2	         8148.84	        -458.359
     191	 1.97548	 1.12038	        -8590.03	         8131.87	        -458.161
     192	  1.9712	 1.13322	        -8572.21	         8114.28	        -457.924
     193	 1.96773	 1.14346	        -8557.71	         8099.98	         -457.73
     194	 1.96582	 1.14873	        -8549.83	         8092.14	        -457.688
     195	 1.96571	 1.14833	         -8549.5	         8091.68	        -457.815
     196	 1.96703	 1.14334	        -8555.11	         8097.12	        -457.993
     197	  1.9692	 1.13556	        -8564.13	         8106.03	         -458.11
     198	 1.97177	 1.12632	        -8574.76	         8116.61	        -458.153
     199	 1.97455	 1.11627	        -8586.24	         8128.07	        -458.171
     200	 1.97745	 1.10579	        -8598.22	         8139.99	        -458.229
     201	 1.98024	 1.09562	        -8609.82	         8151.47	        -458.349
     202	 1.98254	   1.087	         -8619.4	         8160.93	        -458.467
     203	 1.98395	 1.08112	        -8625.29	         8166.77	        -458.529
     204	 1.98428	 1.07862	        -8626.65	         8168.13	        -458.525
     205	 1.98358	 1.07932	        -8623.68	         8165.25	        -458.431
     206	 1.98225	 1.08204	        -8617.99	         8159.77	        -458.222
     207	 1.98108	 1.08446	        -8612.86	         8154.93	         -457.93
     208	 1.98104	 1.08362	        -8612.52	         8154.77	        -457.745
     209	 1.98266	 1.07786	         -8619.3	         8161.44	        -457.867
     210	 1.98544	 1.06861	        -8631.09	          8172.9	        -458.193
     211	 1.98821	 1.05935	        -8642.74	         8184.27	        -458.473
     212	 1.98986	 1.05325	        -8649.65	         8191.07	        -458.583
     213	 1.98994	 1.05164	        -8649.91	         8191.41	        -458.494
     214	 1.98875	 1.05371	        -8644.76	          8186.5	        -458.259
     215	  1.9871	 1.05704	        -8637.75	         8179.72	        -458.027
     216	 1.98585	 1.05918	        -8632.47	         8174.57	        -457.901
     217	 1.98551	 1.05866	        -8631.05	         8173.19	        -457.859
     218	 1.98628	 1.05498	        -8634.21	         8176.35	        -457.864
     219	 1.98812	 1.04827	        -8641.81	         8183.91	        -457.895
     220	 1.99083	 1.03911	        -8653.05	         8195.09	        -457.968
     221	 1.99405	 1.02864	        -8666.42	         8208.31	        -458.109
     222	 1.99715	 1.01865	        -8679.36	         8221.09	        -458.274
     223	  1.9995	 1.01114	         -8689.1	         8230.74	        -458.353
     224	 2.00075	 1.00718	        -8694.18	         8235.89	        -458.285
     225	 2.00104	 1.00639	        -8695.27	         8237.11	        -458.155
     226	 2.00076	 1.00765	        -8694.04	         8235.94	        -458.101
     227	 2.00008	 1.01042	        -8691.28	         8233.13	        -458.149
     228	 1.99891	 1.01495	        -8686.51	         8228.32	        -458.189
     229	 1.99719	 1.02136	         -8679.4	         8221.25	        -458.148
     230	 1.99509	 1.02903	        -8670.69	         8212.59	        -458.095
     231	 1.99281	 1.03722	        -8661.32	          8203.2	        -458.115
     232	 1.99035	 1.04584	         -8651.3	         8193.12	        -458.186
     233	 1.98761	 1.05524	        -8640.02	          8181.8	        -458.217
     234	 1.98457	 1.06536	        -8627.48	         8169.31	        -458.167
     235	 1.98153	 1.07536	        -8614.89	          8156.8	        -458.085
     236	 1.97888	  1.0841	        -8603.95	         8145.87	        -458.076
     237	 1.97678	 1.09107	        -8595.41	         8137.25	        -458.156
     238	 1.97515	 1.09663	        -8588.77	         8130.54	        -458.235
     239	 1.97383	 1.10125	        -8583.38	         8125.09	         -458.29
     240	 1.97273	 1.10518	        -8578.86	         8120.57	        -458.282
     241	 1.97195	 1.10819	         -8575.6	         8117.36	        -458.238
     242	 1.97156	 1.10996	        -8574.13	         8115.78	        -458.351
     243	 1.97116	 1.11166	        -8572.73	         8114.12	        -458.606
     244	 1.96995	 1.11566	        -8567.82	         8109.13	        -458.688
     245	 1.96764	 1.12278	         -8558.1	         8099.64	        -458.456
     246	 1.96494	 1.13087	        -8546.58	         8088.51	        -458.076
     247	 1.96305	 1.13629	        -8538.49	         8080.73	        -457.763
     248	 1.96298	 1.13602	        -8538.07	         8080.46	        -457.614
     249	 1.96517	 1.12883	        -8547.06	         8089.44	        -457.612
     250	 1.96945	 1.11516	        -8564.79	         8107.09	        -457.699
     251	 1.97533	 1.09658	        -8589.09	         8131.25	        -457.838
     252	 1.98205	 1.07532	        -8616.98	         8158.95	        -458.027
     253	 1.98875	 1.05412	        -8644.79	         8186.53	        -458.266
     254	 1.99444	 1.03604	        -8668.44	         8209.93	        -458.508
