    Step 	 temperature 	 pressure 	 Potential Energy 	 Kinetic Energy 	 Sum Energy

       0	 2.17912	-1.55884	        -16820.5	         16064.9	        -755.584
       1	 2.17919	-1.55544	          -16821	         16065.4	        -755.622
       2	 2.17934	-1.54502	        -16822.3	         16066.5	         -755.74
       3	 2.17938	-1.52699	        -16822.8	         16066.8	         -755.95
       4	 2.17895	-1.50028	        -16819.9	         16063.7	        -756.276
       5	 2.17752	-1.46326	        -16809.8	         16053.1	        -756.752
       6	  2.1743	-1.41364	        -16786.8	         16029.4	         -757.42
       7	  2.1682	-1.34833	        -16742.8	         15984.4	        -758.324
       8	 2.15779	-1.26336	        -16667.2	         15907.7	        -759.469
       9	 2.14134	-1.15407	        -16547.2	         15786.5	        -760.735
      10	 2.11713	 -1.0161	        -16369.9	         15608.1	        -761.781
      11	 2.08417	-0.84735	        -16127.4	         15365.2	        -762.173
      12	 2.04289	-0.65018	        -15822.6	           15061	        -761.677
      13	 1.99553	-0.432446	        -15472.3	           14712	        -760.293
      14	 1.94595	-0.206852	        -15105.1	         14346.6	        -758.489
      15	  1.8986	0.0120754	        -14754.6	         13997.6	        -756.952
      16	 1.85722	0.212005	        -14448.7	         13692.7	        -756.031
      17	 1.82411	0.385066	        -14204.4	         13448.6	        -755.757
      18	     1.8	0.528125	          -14027	           13271	        -755.971
      19	 1.78445	0.641817	        -13912.8	         13156.4	        -756.439
      20	 1.77631	0.729063	        -13853.4	         13096.4	        -756.979
      21	 1.77419	 0.79376	        -13838.3	         13080.8	        -757.478
      22	 1.77676	0.839865	        -13857.6	         13099.7	        -757.844
      23	 1.78297	0.870683	        -13903.5	         13145.5	        -757.993
      24	  1.7922	0.888366	        -13971.5	         13213.5	            -758
      25	 1.80408	0.894378	        -14059.2	           13301	        -758.178
      26	 1.81797	0.891015	        -14162.1	         13403.4	        -758.623
      27	 1.83286	0.881831	        -14272.2	         13513.1	        -759.074
      28	 1.84767	0.870391	        -14381.7	         13622.3	        -759.431
      29	 1.86153	0.859601	        -14484.2	         13724.5	        -759.763
      30	 1.87377	 0.85184	        -14574.6	         13814.6	        -759.991
      31	 1.88399	0.848529	          -14650	           13890	        -759.984
      32	 1.89232	0.849539	        -14711.2	         13951.4	        -759.814
      33	 1.89922	0.853601	        -14761.9	         14002.2	        -759.664
      34	 1.90521	0.859275	        -14805.9	         14046.3	        -759.572
      35	 1.91075	0.865269	        -14846.6	         14087.1	         -759.45
      36	 1.91631	0.870177	        -14887.5	         14128.2	        -759.307
      37	 1.92237	0.872661	        -14932.1	         14172.8	        -759.298
      38	 1.92907	0.872258	        -14981.6	         14222.1	        -759.478
      39	 1.93621	0.869653	        -15034.5	         14274.8	        -759.722
      40	 1.94344	0.866018	          -15088	         14328.1	        -759.913
      41	 1.95041	0.862398	        -15139.6	         14379.5	        -760.094
      42	 1.95681	0.859853	        -15186.9	         14426.6	         -760.33
      43	 1.96222	0.859715	          -15227	         14466.5	        -760.541
      44	 1.96628	0.863148	          -15257	         14496.4	        -760.614
      45	 1.96891	0.870524	        -15276.3	         14515.7	        -760.549
      46	  1.9703	0.881327	        -15286.4	           14526	         -760.39
      47	 1.97087	 0.89439	        -15290.4	         14530.2	         -760.18
      48	 1.97114	0.908216	        -15292.3	         14532.2	        -760.033
      49	  1.9715	0.921632	        -15294.9	         14534.9	        -760.026
      50	  1.9721	0.934214	        -15299.4	         14539.3	        -760.106
      51	 1.97288	0.946079	        -15305.2	         14545.1	        -760.191
      52	 1.97379	0.957422	          -15312	         14551.8	        -760.191
      53	 1.97488	0.968099	          -15320	         14559.8	        -760.176
      54	 1.97615	0.978034	        -15329.5	         14569.1	        -760.395
      55	 1.97722	0.988355	        -15337.8	           14577	        -760.827
      56	 1.97737	 1.00119	        -15339.2	         14578.1	        -761.126
      57	 1.97612	 1.01793	          -15330	         14568.9	        -761.135
      58	 1.97351	 1.03829	        -15310.7	         14549.7	        -760.986
      59	 1.96998	 1.06091	        -15284.5	         14523.7	        -760.792
      60	 1.96611	 1.08398	        -15255.7	         14495.1	         -760.53
      61	 1.96262	 1.10525	        -15229.6	         14469.4	        -760.168
      62	 1.96037	 1.12213	        -15212.7	         14452.9	        -759.859
      63	    1.96	 1.13266	          -15210	         14450.1	        -759.912
      64	 1.96139	 1.13717	        -15220.8	         14460.4	         -760.42
      65	 1.96353	 1.13865	        -15237.2	         14476.1	        -761.067
      66	 1.96517	 1.14093	        -15249.6	         14488.2	        -761.368
      67	 1.96566	 1.14597	          -15253	         14491.8	        -761.155
      68	 1.96533	 1.15287	        -15250.1	         14489.4	        -760.704
      69	 1.96502	 1.15922	        -15247.5	         14487.1	        -760.435
      70	 1.96527	 1.16342	        -15249.4	         14488.9	        -760.521
      71	 1.96602	 1.16571	        -15255.3	         14494.5	        -760.796
      72	 1.96683	 1.16743	        -15261.4	         14500.4	        -760.985
      73	 1.96737	 1.16949	        -15265.4	         14504.5	         -760.96
      74	 1.96768	 1.17173	        -15267.6	         14506.7	        -760.834
      75	 1.96801	  1.1734	        -15269.9	         14509.1	        -760.764
      76	 1.96853	  1.1739	        -15273.7	         14512.9	        -760.789
      77	 1.96929	 1.17313	        -15279.4	         14518.6	        -760.827
      78	 1.97032	 1.17104	        -15286.9	         14526.1	        -760.803
      79	  1.9717	 1.16736	        -15297.1	         14536.3	        -760.786
      80	 1.97346	 1.16204	        -15310.2	         14549.3	        -760.895
      81	 1.97537	 1.15576	        -15324.4	         14563.4	        -761.051
      82	 1.97712	 1.14952	        -15337.3	         14576.3	        -761.035
      83	 1.97865	 1.14352	        -15348.4	         14587.5	        -760.822
      84	 1.98025	 1.13696	        -15359.9	         14599.3	        -760.592
      85	 1.98225	  1.1289	        -15374.6	         14614.1	        -760.513
      86	 1.98473	 1.11919	          -15393	         14632.3	        -760.626
      87	 1.98741	 1.10869	          -15413	         14652.1	        -760.846
      88	 1.98984	 1.09879	        -15431.1	           14670	        -761.061
      89	 1.99158	 1.09082	          -15444	         14682.8	        -761.169
      90	  1.9924	  1.0854	          -15450	         14688.9	        -761.091
      91	 1.99249	 1.08205	        -15450.4	         14689.6	        -760.828
      92	 1.99235	 1.07929	          -15449	         14688.5	        -760.511
      93	 1.99256	 1.07534	        -15450.4	         14690.1	        -760.308
      94	 1.99354	 1.06905	        -15457.5	         14697.2	        -760.208
      95	 1.99546	 1.05993	        -15471.6	         14711.4	        -760.148
      96	 1.99837	 1.04787	        -15493.1	         14732.9	         -760.23
      97	 2.00204	  1.0336	        -15520.4	         14759.9	        -760.477
      98	 2.00597	 1.01867	        -15549.6	         14788.9	        -760.721
      99	 2.00969	 1.00463	        -15577.1	         14816.3	        -760.842
     100	 2.01292	0.992379	          -15601	         14840.1	        -760.899
     101	  2.0155	0.982448	        -15620.2	         14859.1	        -761.045
     102	 2.01716	0.975746	        -15632.6	         14871.4	        -761.284
     103	 2.01747	0.973565	        -15635.1	         14873.7	        -761.459
     104	 2.01614	0.976774	        -15625.3	         14863.8	        -761.466
     105	  2.0132	0.985214	        -15603.5	         14842.1	        -761.318
     106	 2.00903	 0.99768	        -15572.5	         14811.4	        -761.031
     107	 2.00438	 1.01198	        -15537.7	         14777.2	        -760.544
     108	 2.00031	 1.02492	        -15507.3	         14747.2	         -760.09
     109	 1.99769	 1.03382	          -15488	         14727.8	        -760.201
     110	 1.99636	 1.03906	        -15478.8	         14718.1	        -760.738
     111	  1.9954	 1.04343	        -15472.2	           14711	        -761.204
     112	 1.99395	 1.04938	        -15461.6	         14700.3	        -761.321
     113	 1.99182	 1.05745	        -15445.7	         14684.6	        -761.147
     114	 1.98939	 1.06642	        -15427.6	         14666.7	         -760.91
     115	 1.98726	 1.07461	        -15411.7	           14651	        -760.664
     116	 1.98597	 1.08037	          -15402	         14641.5	        -760.476
     117	 1.98584	 1.08271	        -15401.1	         14640.5	        -760.562
     118	 1.98665	 1.08223	        -15407.4	         14646.5	        -760.838
     119	 1.98783	  1.0807	        -15416.2	         14655.2	        -761.008
     120	  1.9889	 1.07949	          -15424	         14663.1	        -760.987
     121	 1.98974	 1.07898	        -15430.2	         14669.3	        -760.879
     122	 1.99043	 1.07899	        -15435.2	         14674.3	        -760.855
     123	 1.99089	 1.07972	        -15438.8	         14677.8	        -761.009
     124	 1.99079	 1.08216	        -15438.3	           14677	        -761.287
     125	 1.98962	 1.08779	        -15429.9	         14668.4	        -761.481
     126	 1.98712	 1.09732	        -15411.3	         14649.9	        -761.322
     127	 1.98372	 1.10943	        -15385.7	         14624.9	        -760.804
     128	 1.98049	 1.12083	        -15361.4	         14601.1	        -760.276
     129	 1.97854	 1.12821	        -15346.8	         14586.7	        -760.044
     130	 1.97836	 1.13003	        -15345.6	         14585.4	        -760.196
     131	 1.97969	 1.12704	        -15355.8	         14595.2	        -760.605
     132	 1.98175	 1.12151	        -15371.3	         14610.4	        -760.961
     133	 1.98385	 1.11559	        -15386.9	         14625.8	        -761.041
     134	 1.98574	 1.11001	        -15400.7	         14639.8	        -760.904
     135	  1.9876	 1.10439	        -15414.3	         14653.5	        -760.818
     136	 1.98948	 1.09855	        -15428.3	         14667.4	        -760.974
     137	 1.99108	  1.0935	        -15440.4	         14679.1	        -761.275
     138	 1.99184	  1.0909	        -15446.2	         14684.8	        -761.453
     139	 1.99146	 1.09172	        -15443.3	           14682	         -761.36
     140	 1.99012	 1.09533	        -15433.1	         14672.1	        -761.059
     141	 1.98842	 1.09995	        -15420.3	         14659.5	        -760.751
     142	 1.98696	 1.10369	        -15409.4	         14648.8	        -760.615
     143	 1.98607	 1.10557	        -15402.8	         14642.2	        -760.571
     144	 1.98588	 1.10521	        -15401.3	         14640.9	        -760.439
     145	  1.9866	 1.10201	        -15406.4	         14646.1	        -760.328
     146	 1.98828	 1.09574	          -15419	         14658.5	        -760.496
     147	 1.99052	 1.08768	        -15435.9	           14675	        -760.886
     148	 1.99251	 1.08031	        -15450.8	         14689.7	        -761.178
     149	 1.99358	 1.07564	        -15458.8	         14697.6	         -761.23
     150	 1.99354	 1.07429	        -15458.3	         14697.3	        -761.096
     151	 1.99258	 1.07566	          -15451	         14690.2	        -760.812
     152	 1.99125	 1.07813	        -15440.9	         14680.4	        -760.457
     153	 1.99024	 1.07968	        -15433.2	           14673	        -760.232
     154	 1.98997	 1.07901	        -15431.2	           14671	        -760.261
     155	 1.99042	 1.07619	        -15434.7	         14674.3	        -760.459
     156	 1.99121	  1.0723	        -15440.8	         14680.1	        -760.708
     157	 1.99183	 1.06882	        -15445.6	         14684.7	         -760.96
     158	 1.99179	 1.06719	        -15445.5	         14684.4	        -761.145
     159	 1.99077	 1.06833	        -15437.9	         14676.8	        -761.095
     160	 1.98893	  1.0718	        -15424.1	         14663.3	        -760.735
     161	   1.987	 1.07541	        -15409.4	         14649.1	        -760.284
     162	 1.98587	 1.07652	        -15400.8	         14640.7	        -760.063
     163	 1.98601	 1.07371	        -15401.8	         14641.8	        -760.084
     164	 1.98744	 1.06698	        -15412.5	         14652.4	        -760.182
     165	 1.98994	 1.05704	        -15431.1	         14670.7	        -760.372
     166	 1.99305	 1.04525	        -15454.3	         14693.6	        -760.653
     167	 1.99619	 1.03345	        -15477.7	         14716.8	        -760.859
     168	 1.99893	 1.02304	        -15497.9	           14737	        -760.894
     169	 2.00111	 1.01461	          -15514	         14753.1	        -760.936
     170	 2.00252	 1.00874	        -15524.7	         14763.5	        -761.219
     171	 2.00264	 1.00704	        -15525.8	         14764.4	        -761.449
     172	 2.00111	 1.01067	        -15514.3	         14753.1	        -761.221
     173	 1.99834	 1.01831	        -15493.3	         14732.7	        -760.666
     174	 1.99537	 1.02682	          -15471	         14710.8	        -760.189
     175	 1.99315	 1.03333	        -15454.4	         14694.4	        -760.008
     176	 1.99209	  1.0366	        -15446.7	         14686.6	        -760.089
     177	 1.99211	 1.03689	          -15447	         14686.7	        -760.305
     178	 1.99281	 1.03535	        -15452.4	         14691.9	        -760.508
     179	  1.9938	 1.03312	        -15459.9	         14699.2	        -760.656
     180	 1.99478	 1.03115	        -15467.2	         14706.4	        -760.791
     181	 1.99553	 1.03014	        -15472.7	         14711.9	        -760.817
     182	 1.99602	 1.03023	        -15476.3	         14715.5	         -760.71
     183	 1.99643	  1.0309	        -15479.3	         14718.6	        -760.724
     184	  1.9967	 1.03228	        -15481.6	         14720.6	        -760.987
     185	  1.9964	 1.03572	        -15479.6	         14718.3	        -761.267
     186	 1.99505	 1.04257	        -15469.7	         14708.4	        -761.314
     187	  1.9926	 1.05297	        -15451.5	         14690.3	        -761.183
     188	 1.98932	 1.06599	        -15427.3	         14666.2	        -761.072
     189	 1.98552	  1.0807	        -15399.3	         14638.2	        -761.101
     190	 1.98125	 1.09682	          -15368	         14606.7	        -761.269
     191	 1.97636	 1.11468	        -15332.1	         14570.7	        -761.414
     192	 1.97079	 1.13434	        -15290.9	         14529.6	         -761.28
     193	 1.96503	 1.15424	          -15248	         14487.2	        -760.785
     194	 1.96021	   1.171	        -15211.8	         14451.6	        -760.131
     195	 1.95763	 1.18063	        -15192.4	         14432.7	         -759.74
     196	 1.95803	 1.18093	        -15195.5	         14435.6	        -759.909
     197	   1.961	 1.17307	          -15218	         14457.5	        -760.495
     198	  1.9653	 1.16078	        -15250.2	         14489.2	        -761.055
     199	 1.96967	 1.14782	        -15282.6	         14521.4	        -761.229
     200	 1.97354	  1.1359	        -15310.9	         14549.9	        -761.011
     201	 1.97709	 1.12452	        -15336.7	         14576.1	        -760.659
     202	 1.98084	  1.1123	        -15364.1	         14603.7	        -760.454
     203	 1.98507	  1.0985	        -15395.4	         14634.8	        -760.519
     204	 1.98959	 1.08384	          -15429	         14668.2	        -760.772
     205	 1.99389	 1.07003	        -15460.9	         14699.8	        -761.031
     206	 1.99739	 1.05887	        -15486.8	         14725.6	        -761.199
     207	  1.9997	 1.05159	          -15504	         14742.7	        -761.309
     208	 2.00056	 1.04899	        -15510.4	           14749	        -761.399
     209	 1.99983	 1.05153	          -15505	         14743.6	        -761.431
     210	 1.99752	  1.0591	        -15487.9	         14726.6	        -761.282
     211	 1.99408	 1.07037	        -15462.1	         14701.2	        -760.863
     212	 1.99039	  1.0826	        -15434.5	         14674.1	        -760.434
     213	  1.9873	 1.09307	        -15411.8	         14651.3	        -760.429
     214	 1.98495	 1.10127	        -15394.7	           14634	        -760.703
     215	 1.98297	 1.10819	        -15380.2	         14619.4	        -760.794
     216	 1.98124	   1.114	        -15367.2	         14606.7	        -760.565
     217	  1.9802	 1.11724	        -15359.2	           14599	        -760.226
     218	 1.98047	 1.11597	        -15361.1	           14601	        -760.082
     219	 1.98229	 1.10939	        -15374.7	         14614.4	        -760.261
     220	 1.98532	 1.09855	        -15397.3	         14636.7	        -760.544
     221	 1.98901	 1.08521	        -15424.5	         14663.9	        -760.635
     222	 1.99306	 1.07034	        -15454.3	         14693.7	        -760.576
     223	 1.99735	 1.05433	        -15486.1	         14725.4	        -760.678
     224	 2.00155	 1.03837	        -15517.2	         14756.3	        -760.942
     225	 2.00503	 1.02442	        -15543.1	           14782	        -761.084
     226	 2.00742	 1.01376	        -15560.6	         14799.6	        -760.983
     227	  2.0088	 1.00625	        -15570.4	         14809.7	        -760.686
     228	 2.00965	 1.00051	        -15576.4	           14816	        -760.363
     229	 2.01054	0.994951	        -15582.8	         14822.6	        -760.244
     230	  2.0117	0.988982	        -15591.5	         14831.1	        -760.343
     231	 2.01297	0.983134	          -15601	         14840.5	        -760.463
     232	 2.01412	 0.97818	        -15609.5	         14848.9	        -760.585
     233	 2.01483	0.974988	          -15615	         14854.1	        -760.845
     234	 2.01461	0.974998	        -15613.6	         14852.5	        -761.103
     235	 2.01307	0.979422	        -15602.2	         14841.2	        -761.024
     236	 2.01044	0.987588	        -15582.4	         14821.8	        -760.574
     237	  2.0076	 0.99682	          -15561	         14800.9	        -760.097
     238	  2.0055	 1.00429	        -15545.4	         14785.4	        -759.971
     239	 2.00446	 1.00906	          -15538	         14777.7	        -760.251
     240	 2.00403	 1.01243	        -15535.2	         14774.6	        -760.656
     241	 2.00352	 1.01645	        -15531.7	         14770.8	        -760.894
     242	 2.00252	 1.02231	        -15524.4	         14763.5	        -760.894
     243	 2.00109	 1.02983	        -15513.7	         14752.9	        -760.744
     244	 1.99961	 1.03788	        -15502.6	           14742	        -760.594
     245	 1.99847	 1.04528	        -15494.2	         14733.6	        -760.601
     246	 1.99778	 1.05168	        -15489.3	         14728.5	        -760.784
     247	 1.99731	 1.05774	          -15486	           14725	         -760.98
     248	 1.99675	 1.06434	          -15482	         14720.9	        -761.065
     249	 1.99591	 1.07197	        -15475.9	         14714.8	        -761.096
     250	  1.9947	 1.08089	          -15467	         14705.8	        -761.156
     251	 1.99296	 1.09151	        -15454.3	           14693	        -761.248
     252	 1.99049	 1.10434	        -15436.2	         14674.8	        -761.368
     253	 1.98708	 1.11992	        -15411.1	         14649.6	        -761.479
     254	 1.98257	  1.1385	          -15378	         14616.5	        -761.493
