    Step 	 temperature 	 pressure 	 Potential Energy 	 Kinetic Energy 	 Sum Energy

       0	 2.18871	-1.54267	        -2487.56	         2393.64	        -93.9222
       1	 2.18877	-1.53928	        -2487.63	          2393.7	        -93.9285
       2	 2.18888	 -1.5289	        -2487.77	         2393.83	        -93.9462
       3	 2.18885	 -1.5109	        -2487.77	         2393.79	        -93.9768
       4	 2.18833	-1.48423	        -2487.25	         2393.22	        -94.0234
       5	 2.18681	-1.44732	        -2485.65	         2391.56	        -94.0901
       6	 2.18354	-1.39801	        -2482.16	         2387.98	         -94.182
       7	 2.17752	-1.33341	         -2475.7	          2381.4	        -94.3042
       8	 2.16743	-1.24988	        -2464.82	         2370.36	        -94.4587
       9	 2.15166	-1.14312	        -2447.76	         2353.12	         -94.637
      10	 2.12849	-1.00869	        -2422.59	         2327.78	         -94.809
      11	 2.09653	-0.843398	        -2387.75	         2292.83	        -94.9124
      12	 2.05554	-0.647612	        -2342.89	         2248.02	        -94.8701
      13	 2.00732	-0.427805	        -2289.94	         2195.28	        -94.6543
      14	  1.9558	-0.196986	        -2233.29	         2138.95	        -94.3463
      15	 1.90596	0.028737	        -2178.53	         2084.45	        -94.0863
      16	 1.86202	0.235593	        -2130.36	          2036.4	        -93.9621
      17	 1.82629	0.415625	        -2091.29	         1997.33	        -93.9579
      18	 1.79929	0.566357	        -2061.81	         1967.81	        -93.9979
      19	 1.78066	0.688147	        -2041.46	         1947.43	        -94.0309
      20	  1.7698	0.782182	        -2029.63	         1935.56	        -94.0682
      21	 1.76591	0.850525	        -2025.46	         1931.31	        -94.1456
      22	 1.76769	0.896993	        -2027.51	         1933.25	        -94.2631
      23	 1.77342	0.926807	        -2033.87	         1939.52	        -94.3588
      24	 1.78183	0.944213	        -2043.07	         1948.71	        -94.3553
      25	 1.79278	0.950032	           -2055	         1960.69	        -94.3057
      26	 1.80651	0.943869	        -2070.08	          1975.7	        -94.3844
      27	 1.82189	 0.92955	        -2087.05	         1992.52	        -94.5351
      28	 1.83704	0.913338	        -2103.66	         2009.08	        -94.5816
      29	 1.85102	0.898222	        -2118.94	         2024.37	        -94.5683
      30	 1.86369	0.884779	        -2132.83	         2038.23	        -94.5989
      31	 1.87474	0.874287	        -2144.94	         2050.31	        -94.6231
      32	 1.88416	0.867239	        -2155.15	         2060.61	        -94.5377
      33	 1.89317	0.860263	        -2164.85	         2070.47	        -94.3803
      34	 1.90371	0.847769	        -2176.31	         2081.99	        -94.3221
      35	 1.91648	0.827808	        -2190.39	         2095.96	        -94.4278
      36	 1.93026	0.804322	         -2205.6	         2111.02	        -94.5764
      37	  1.9431	0.783206	        -2219.73	         2125.06	        -94.6688
      38	 1.95363	0.768554	        -2231.28	         2136.58	         -94.706
      39	 1.96127	0.762177	        -2239.64	         2144.93	        -94.7111
      40	 1.96603	0.764184	        -2244.82	         2150.14	        -94.6798
      41	 1.96853	0.772923	        -2247.48	         2152.87	         -94.605
      42	 1.96996	0.784994	        -2248.94	         2154.43	        -94.5155
      43	 1.97163	0.796481	        -2250.72	         2156.26	        -94.4611
      44	 1.97441	0.804875	        -2253.77	          2159.3	        -94.4685
      45	  1.9783	0.810119	        -2258.07	         2163.55	        -94.5191
      46	 1.98271	0.813936	        -2262.94	         2168.37	        -94.5635
      47	 1.98703	0.818065	        -2267.68	          2173.1	        -94.5814
      48	 1.99091	0.823399	        -2271.94	         2177.35	        -94.5975
      49	 1.99412	0.830583	        -2275.49	         2180.86	          -94.63
      50	 1.99635	 0.84047	        -2277.95	         2183.29	        -94.6595
      51	 1.99744	0.853451	        -2279.15	         2184.48	        -94.6665
      52	 1.99757	0.868788	        -2279.27	         2184.62	        -94.6429
      53	 1.99748	0.884258	        -2279.08	         2184.53	        -94.5472
      54	 1.99872	0.895259	         -2280.3	         2185.88	        -94.4163
      55	 2.00287	0.896778	        -2284.84	         2190.42	        -94.4151
      56	 2.00994	0.888779	        -2292.69	         2198.15	         -94.543
      57	 2.01837	 0.87614	           -2302	         2207.37	         -94.633
      58	 2.02671	0.863224	        -2311.15	         2216.49	        -94.6623
      59	 2.03406	0.852652	        -2319.27	         2224.53	        -94.7364
      60	 2.03919	0.848233	           -2325	         2230.14	        -94.8596
      61	 2.04049	0.854914	        -2326.49	         2231.56	        -94.9317
      62	  2.0371	0.875302	        -2322.74	         2227.86	        -94.8882
      63	 2.02981	0.907171	         -2314.6	         2219.87	        -94.7214
      64	 2.02103	0.943354	        -2304.77	         2210.28	        -94.4914
      65	 2.01395	0.974411	        -2296.87	         2202.54	        -94.3361
      66	 2.01073	0.993876	        -2293.38	         2199.02	        -94.3621
      67	 2.01124	 1.00216	        -2294.11	         2199.57	        -94.5349
      68	 2.01339	 1.00546	        -2296.66	         2201.92	        -94.7363
      69	 2.01459	 1.01136	         -2298.1	         2203.24	        -94.8604
      70	 2.01322	 1.02472	        -2296.61	         2201.74	        -94.8696
      71	 2.00909	 1.04596	        -2292.03	         2197.22	        -94.8115
      72	 2.00298	 1.07266	        -2285.31	         2190.55	        -94.7653
      73	 1.99576	 1.10224	         -2277.4	         2182.65	        -94.7534
      74	 1.98801	 1.13294	         -2268.9	         2174.17	        -94.7363
      75	  1.9803	 1.16288	        -2260.46	         2165.74	        -94.7171
      76	 1.97316	  1.1903	        -2252.65	         2157.93	        -94.7195
      77	 1.96696	  1.2141	        -2245.83	         2151.16	        -94.6709
      78	 1.96257	 1.23171	        -2240.91	         2146.36	        -94.5502
      79	  1.9615	 1.23858	        -2239.64	         2145.18	        -94.4617
      80	 1.96476	 1.23171	        -2243.24	         2148.74	        -94.4938
      81	 1.97184	 1.21273	        -2251.12	         2156.49	        -94.6235
      82	   1.981	 1.18711	        -2261.25	         2166.51	        -94.7446
      83	 1.99041	 1.16048	        -2271.59	          2176.8	        -94.7919
      84	 1.99901	 1.13616	        -2281.01	          2186.2	        -94.8045
      85	 2.00616	 1.11622	        -2288.86	         2194.02	        -94.8443
      86	 2.01102	 1.10328	        -2294.24	         2199.33	        -94.9118
      87	  2.0126	 1.10038	           -2296	         2201.06	        -94.9483
      88	 2.01047	 1.10881	        -2293.62	         2198.73	         -94.886
      89	 2.00555	 1.12582	        -2288.08	         2193.35	        -94.7273
      90	 1.99994	 1.14499	        -2281.78	         2187.22	        -94.5579
      91	 1.99595	 1.15941	        -2277.32	         2182.86	        -94.4626
      92	 1.99491	 1.16507	         -2276.2	         2181.72	        -94.4803
      93	 1.99664	  1.1624	        -2278.21	         2183.61	        -94.5985
      94	 1.99969	  1.1557	        -2281.69	         2186.95	        -94.7414
      95	 2.00227	 1.15026	        -2284.59	         2189.77	        -94.8201
      96	 2.00337	 1.14901	        -2285.78	         2190.97	        -94.8088
      97	  2.0031	 1.15155	        -2285.43	         2190.68	        -94.7579
      98	 2.00209	 1.15587	        -2284.32	         2189.57	        -94.7433
      99	 2.00058	 1.16108	        -2282.71	         2187.92	        -94.7967
     100	 1.99803	  1.1686	           -2280	         2185.13	        -94.8703
     101	 1.99372	  1.1804	        -2275.29	         2180.41	        -94.8754
     102	 1.98782	 1.19589	        -2268.72	         2173.96	        -94.7541
     103	 1.98204	 1.21004	        -2262.19	         2167.64	        -94.5513
     104	 1.97892	 1.21524	        -2258.65	         2164.23	        -94.4154
     105	 1.98009	 1.20675	        -2259.96	         2165.51	        -94.4502
     106	 1.98505	 1.18632	        -2265.53	         2170.93	        -94.5945
     107	 1.99176	 1.16022	        -2273.01	         2178.27	        -94.7365
     108	 1.99799	 1.13518	        -2279.92	         2185.09	        -94.8338
     109	 2.00209	  1.1163	        -2284.46	         2189.57	        -94.8848
     110	 2.00314	 1.10648	        -2285.59	         2190.71	        -94.8822
     111	  2.0011	 1.10602	        -2283.29	         2188.48	        -94.8118
     112	 1.99697	 1.11216	        -2278.65	         2183.97	        -94.6787
     113	 1.99258	 1.11962	        -2273.71	         2179.17	        -94.5456
     114	  1.9897	 1.12311	        -2270.52	         2176.02	         -94.503
     115	 1.98901	 1.12065	        -2269.82	         2175.26	        -94.5561
     116	 1.98998	 1.11383	        -2270.95	         2176.33	        -94.6228
     117	 1.99177	 1.10515	        -2272.94	         2178.28	        -94.6527
     118	 1.99385	 1.09611	        -2275.22	         2180.56	        -94.6658
     119	 1.99587	 1.08769	        -2277.47	         2182.77	        -94.7012
     120	 1.99726	 1.08155	        -2279.06	         2184.29	        -94.7701
     121	 1.99713	 1.08031	        -2278.98	         2184.14	        -94.8366
     122	 1.99472	 1.08611	        -2276.35	         2181.51	         -94.841
     123	 1.99015	 1.09858	        -2271.27	         2176.51	        -94.7616
     124	 1.98456	  1.1141	        -2265.04	          2170.4	        -94.6439
     125	 1.97964	 1.12752	        -2259.56	         2165.01	        -94.5404
     126	 1.97692	 1.13412	        -2256.51	         2162.05	        -94.4624
     127	 1.97753	 1.13051	        -2257.13	         2162.71	        -94.4233
     128	 1.98193	  1.1152	        -2261.98	         2167.53	        -94.4495
     129	 1.98968	 1.08958	        -2270.54	            2176	        -94.5403
     130	 1.99944	  1.0578	        -2281.33	         2186.67	         -94.662
     131	 2.00944	 1.02543	        -2292.37	          2197.6	        -94.7689
     132	 2.01804	0.997624	        -2301.84	         2207.01	        -94.8292
     133	 2.02421	0.977852	        -2308.61	         2213.76	        -94.8533
     134	 2.02737	0.968095	         -2312.1	         2217.21	        -94.8839
     135	 2.02698	0.970164	        -2311.72	         2216.78	        -94.9391
     136	 2.02237	0.986183	        -2306.74	         2211.74	        -94.9942
     137	 2.01301	 1.01768	        -2296.54	         2201.51	        -95.0379
     138	  1.9987	 1.06491	        -2280.94	         2185.86	         -95.071
     139	 1.97981	 1.12643	        -2260.24	         2165.21	        -95.0282
     140	 1.95816	 1.19664	        -2236.31	         2141.53	         -94.776
     141	 1.93826	 1.26199	        -2214.13	         2119.77	        -94.3543
     142	 1.92586	 1.30459	        -2200.46	         2106.21	        -94.2437
     143	 1.92251	   1.319	        -2197.23	         2102.54	        -94.6894
     144	 1.92335	 1.31977	        -2198.63	         2103.47	          -95.16
     145	 1.92262	 1.32387	        -2197.93	         2102.67	        -95.2591
     146	 1.91877	 1.33546	        -2193.48	         2098.46	        -95.0161
     147	 1.91482	 1.34564	        -2188.78	         2094.13	        -94.6435
     148	 1.91537	 1.34077	         -2189.2	         2094.74	        -94.4588
     149	 1.92267	 1.31438	        -2197.32	         2102.72	        -94.5976
     150	  1.9349	  1.2723	        -2210.95	          2116.1	        -94.8537
     151	 1.94837	 1.22587	        -2225.82	         2130.82	        -94.9936
     152	 1.96036	 1.18323	        -2238.93	         2143.94	        -94.9916
     153	 1.96996	 1.14731	        -2249.35	         2154.43	          -94.92
     154	 1.97731	 1.11789	        -2257.32	         2162.47	        -94.8453
     155	 1.98293	  1.0938	        -2263.39	         2168.62	        -94.7705
     156	 1.98751	 1.07323	         -2268.3	         2173.63	        -94.6748
     157	 1.99203	 1.05343	        -2273.17	         2178.57	        -94.5954
     158	 1.99732	 1.03204	        -2278.94	         2184.35	        -94.5871
     159	 2.00342	  1.0091	        -2285.66	         2191.02	        -94.6415
     160	 2.00959	0.986932	        -2292.51	         2197.77	        -94.7354
     161	 2.01452	0.969448	        -2298.03	         2203.16	        -94.8711
     162	 2.01648	0.961705	        -2300.29	         2205.31	        -94.9817
     163	 2.01431	0.967284	        -2297.88	         2202.93	        -94.9508
     164	 2.00859	0.984368	        -2291.45	         2196.68	        -94.7647
     165	 2.00186	 1.00545	        -2283.86	         2189.32	        -94.5368
     166	  1.9971	 1.02165	        -2278.53	         2184.12	        -94.4102
     167	 1.99589	  1.0282	        -2277.26	         2182.79	        -94.4775
     168	 1.99725	 1.02788	        -2278.97	         2184.28	        -94.6976
     169	 1.99828	 1.02925	        -2280.31	          2185.4	        -94.9104
     170	 1.99604	 1.04077	        -2277.96	         2182.95	        -95.0053
     171	 1.98915	 1.06626	        -2270.39	         2175.42	        -94.9717
     172	 1.97812	   1.104	        -2258.19	         2163.36	        -94.8317
     173	  1.9651	  1.1475	        -2243.74	         2149.12	        -94.6276
     174	  1.9531	 1.18756	        -2230.44	            2136	        -94.4458
     175	 1.94486	 1.21587	        -2221.35	         2126.99	        -94.3643
     176	 1.94174	 1.22816	        -2217.98	         2123.58	        -94.4015
     177	 1.94343	 1.22525	        -2219.94	         2125.43	        -94.5147
     178	 1.94846	 1.21148	        -2225.56	         2130.93	          -94.63
     179	 1.95509	 1.19205	        -2232.89	         2138.17	        -94.7217
     180	 1.96178	 1.17164	        -2240.29	         2145.49	        -94.8003
     181	 1.96729	 1.15424	        -2246.36	         2151.51	        -94.8482
     182	 1.97088	 1.14238	        -2250.28	         2155.44	        -94.8405
     183	 1.97258	 1.13631	        -2252.09	          2157.3	        -94.7879
     184	 1.97303	 1.13439	        -2252.52	         2157.79	        -94.7311
     185	 1.97296	 1.13464	        -2252.42	         2157.72	        -94.7013
     186	  1.9728	 1.13594	        -2252.25	         2157.54	        -94.7075
     187	 1.97249	 1.13847	        -2251.94	          2157.2	        -94.7433
     188	 1.97163	 1.14334	        -2251.03	         2156.26	         -94.769
     189	    1.97	  1.1512	        -2249.21	         2154.47	        -94.7411
     190	 1.96795	 1.16082	        -2246.92	         2152.24	        -94.6836
     191	 1.96615	 1.17005	        -2244.94	         2150.27	        -94.6658
     192	 1.96485	 1.17805	        -2243.54	         2148.85	        -94.6884
     193	 1.96382	 1.18545	        -2242.43	         2147.72	        -94.7038
     194	 1.96283	 1.19277	        -2241.34	         2146.63	        -94.7106
     195	 1.96176	 1.20018	        -2240.18	         2145.46	        -94.7156
     196	 1.96066	 1.20748	        -2238.95	         2144.26	        -94.6897
     197	 1.95999	 1.21328	        -2238.16	         2143.54	        -94.6241
     198	 1.96065	 1.21486	        -2238.83	         2144.26	        -94.5661
     199	 1.96343	 1.20991	        -2241.86	          2147.3	        -94.5614
     200	 1.96845	 1.19822	        -2247.38	         2152.78	        -94.6046
     201	 1.97508	 1.18177	        -2254.72	         2160.03	        -94.6876
     202	 1.98199	 1.16458	        -2262.42	         2167.59	         -94.824
     203	 1.98719	 1.15272	        -2268.25	         2173.28	        -94.9759
     204	 1.98857	 1.15259	        -2269.85	         2174.79	         -95.057
     205	 1.98501	 1.16759	        -2265.91	         2170.89	        -95.0214
     206	 1.97696	 1.19635	        -2256.99	         2162.09	        -94.8962
     207	 1.96614	 1.23364	        -2245.02	         2150.26	        -94.7624
     208	 1.95448	 1.27345	        -2232.21	         2137.51	        -94.6994
     209	 1.94313	 1.31193	        -2219.81	          2125.1	        -94.7125
     210	  1.9324	 1.34774	        -2208.09	         2113.37	        -94.7234
     211	 1.92262	 1.37947	        -2197.31	         2102.67	        -94.6432
     212	 1.91514	 1.40272	        -2188.96	         2094.49	        -94.4727
     213	  1.9122	 1.41045	        -2185.61	         2091.28	        -94.3349
     214	 1.91549	 1.39744	        -2189.23	         2094.87	        -94.3566
     215	 1.92468	 1.36466	        -2199.44	         2104.92	        -94.5174
     216	 1.93764	 1.31861	        -2213.78	          2119.1	        -94.6826
     217	 1.95199	 1.26668	        -2229.55	         2134.79	         -94.756
     218	  1.9663	 1.21347	        -2245.18	         2150.43	        -94.7506
     219	 1.98006	 1.16088	        -2260.21	         2165.48	        -94.7264
     220	 1.99312	 1.10999	        -2274.47	         2179.76	        -94.7115
     221	 2.00521	 1.06212	        -2287.69	         2192.98	        -94.7142
     222	 2.01586	 1.01912	        -2299.37	         2204.62	        -94.7472
     223	 2.02428	0.983685	        -2308.63	         2213.83	        -94.8019
     224	 2.02954	0.958851	        -2314.42	         2219.58	        -94.8433
     225	 2.03101	0.946635	        -2316.02	         2221.19	        -94.8333
     226	 2.02888	0.946602	        -2313.61	         2218.86	        -94.7448
     227	 2.02444	0.955021	         -2308.6	         2214.01	        -94.5913
     228	 2.01977	0.965682	        -2303.36	         2208.91	        -94.4572
     229	 2.01667	0.973142	        -2299.95	         2205.51	        -94.4366
     230	 2.01552	0.976059	        -2298.78	         2204.26	        -94.5198
     231	 2.01542	 0.97697	        -2298.77	         2204.15	        -94.6197
     232	 2.01511	0.979282	        -2298.48	          2203.8	        -94.6812
     233	 2.01376	0.985061	        -2297.02	         2202.32	        -94.6974
     234	 2.01121	  0.9945	        -2294.21	         2199.54	        -94.6703
     235	 2.00793	 1.00595	        -2290.56	         2195.95	        -94.6073
     236	 2.00488	 1.01638	        -2287.15	         2192.62	         -94.535
     237	 2.00312	 1.02245	        -2285.18	         2190.69	        -94.4889
     238	 2.00335	 1.02201	        -2285.43	         2190.95	        -94.4836
     239	 2.00571	 1.01466	        -2288.04	         2193.53	        -94.5097
     240	 2.00981	 1.00161	        -2292.57	         2198.01	        -94.5596
     241	 2.01487	0.985272	        -2298.17	         2203.54	        -94.6219
     242	 2.01994	0.968652	        -2303.75	         2209.08	        -94.6703
     243	 2.02418	0.954367	        -2308.43	         2213.73	        -94.6998
     244	   2.027	 0.94433	        -2311.55	         2216.81	        -94.7404
     245	 2.02773	0.940558	        -2312.41	         2217.61	        -94.8037
     246	 2.02562	0.945354	        -2310.14	          2215.3	        -94.8483
     247	 2.02028	0.959821	        -2304.28	         2209.46	        -94.8228
     248	 2.01231	0.982093	        -2295.45	         2200.74	        -94.7094
     249	 2.00352	 1.00676	        -2285.65	         2191.13	        -94.5169
     250	 1.99669	 1.02558	        -2277.97	         2183.66	        -94.3073
     251	 1.99459	 1.03022	        -2275.57	         2181.37	        -94.2052
     252	 1.99854	  1.0168	        -2279.96	         2185.69	        -94.2748
     253	 2.00764	0.988127	        -2290.09	         2195.64	        -94.4462
     254	 2.01955	0.951355	        -2303.27	         2208.66	        -94.6142
