    Step 	 temperature 	 pressure 	 Potential Energy 	 Kinetic Energy 	 Sum Energy

       0	 2.17658	-1.55473	        -4549.74	         4349.82	        -199.922
       1	 2.17665	-1.55139	        -4549.89	         4349.96	        -199.932
       2	 2.17679	-1.54117	        -4550.21	         4350.24	        -199.963
       3	 2.17682	-1.52347	        -4550.32	          4350.3	        -200.018
       4	  2.1764	-1.49726	        -4549.57	         4349.47	        -200.101
       5	 2.17503	-1.46101	        -4546.94	         4346.72	        -200.221
       6	 2.17197	-1.41258	           -4541	         4340.62	        -200.386
       7	 2.16624	-1.34912	        -4529.77	         4329.17	        -200.607
       8	 2.15652	  -1.267	        -4510.66	         4309.77	        -200.886
       9	 2.14124	-1.16195	        -4480.47	         4279.26	        -201.208
      10	  2.1187	-1.02959	        -4435.77	         4234.25	        -201.514
      11	 2.08756	-0.866842	        -4373.79	         4172.09	        -201.691
      12	 2.04766	-0.674228	        -4294.06	         4092.44	        -201.624
      13	 2.00066	-0.457874	        -4199.89	         3998.59	          -201.3
      14	 1.94999	-0.22936	        -4098.26	         3897.44	        -200.828
      15	  1.9001	-0.00315533	        -3998.17	         3797.82	        -200.345
      16	  1.8553	0.206621	        -3908.35	         3708.39	        -199.965
      17	 1.81895	0.388891	        -3835.56	         3635.81	        -199.754
      18	 1.79289	0.537173	         -3783.5	         3583.77	        -199.727
      19	  1.7774	0.649884	         -3752.7	         3552.86	        -199.849
      20	 1.77148	0.729537	        -3741.09	         3541.04	        -200.055
      21	 1.77336	0.781189	        -3745.06	         3544.78	        -200.277
      22	 1.78103	0.810809	        -3760.58	         3560.11	         -200.47
      23	 1.79267	0.824103	        -3783.96	         3583.34	         -200.62
      24	 1.80676	 0.82594	        -3812.21	         3611.48	        -200.731
      25	 1.82214	0.820301	        -3843.01	         3642.18	        -200.823
      26	 1.83786	0.810524	        -3874.46	         3673.56	        -200.909
      27	 1.85311	0.799503	        -3904.99	            3704	        -200.989
      28	 1.86724	0.789649	        -3933.27	         3732.21	        -201.058
      29	 1.87979	0.782752	        -3958.38	         3757.28	        -201.103
      30	 1.89059	0.779712	        -3979.94	         3778.84	        -201.099
      31	 1.89988	 0.78016	        -3998.44	         3797.39	        -201.047
      32	 1.90821	0.782723	        -4015.02	         3814.01	        -201.013
      33	 1.91598	0.786355	        -4030.58	         3829.54	        -201.041
      34	 1.92322	0.791254	        -4045.08	         3843.99	         -201.09
      35	  1.9297	0.798238	        -4058.05	         3856.92	        -201.131
      36	 1.93513	0.808204	        -4068.96	         3867.77	        -201.192
      37	 1.93913	0.822384	        -4076.99	         3875.75	        -201.243
      38	 1.94145	0.841618	        -4081.58	         3880.38	        -201.206
      39	 1.94242	0.864966	        -4083.41	         3882.32	        -201.097
      40	 1.94281	0.890083	        -4084.14	          3883.1	        -201.037
      41	 1.94311	0.915448	        -4084.78	          3883.7	        -201.084
      42	 1.94317	0.941437	        -4084.96	         3883.82	        -201.145
      43	 1.94272	0.968739	        -4084.06	         3882.92	        -201.138
      44	 1.94186	0.996837	         -4082.3	          3881.2	        -201.105
      45	 1.94087	 1.02466	        -4080.33	         3879.22	        -201.105
      46	  1.9399	 1.05164	        -4078.41	         3877.29	        -201.123
      47	 1.93898	 1.07756	        -4076.59	         3875.44	        -201.148
      48	 1.93805	 1.10237	        -4074.78	         3873.58	        -201.195
      49	 1.93697	 1.12637	        -4072.68	         3871.44	        -201.239
      50	 1.93567	 1.14971	        -4070.08	         3868.84	        -201.241
      51	 1.93432	 1.17175	        -4067.37	         3866.15	        -201.216
      52	 1.93329	 1.19142	        -4065.29	         3864.08	        -201.202
      53	 1.93286	 1.20789	        -4064.43	         3863.23	        -201.207
      54	 1.93316	  1.2209	        -4065.06	         3863.83	         -201.23
      55	 1.93411	 1.23077	        -4066.99	         3865.72	        -201.273
      56	 1.93542	 1.23843	        -4069.64	         3868.33	        -201.312
      57	 1.93675	  1.2449	        -4072.32	            3871	        -201.321
      58	 1.93795	 1.25064	        -4074.69	         3873.39	        -201.304
      59	 1.93905	 1.25552	        -4076.85	         3875.59	        -201.268
      60	 1.94029	 1.25881	        -4079.28	         3878.07	        -201.212
      61	 1.94211	  1.2593	        -4082.85	         3881.71	         -201.14
      62	 1.94503	 1.25547	        -4088.63	         3887.53	        -201.105
      63	 1.94927	 1.24669	        -4097.15	         3895.99	        -201.163
      64	 1.95443	 1.23424	        -4107.57	         3906.29	        -201.283
      65	  1.9597	 1.22068	        -4118.18	         3916.83	        -201.356
      66	 1.96459	 1.20771	        -4127.89	         3926.57	        -201.317
      67	 1.96923	 1.19502	        -4137.07	         3935.84	        -201.224
      68	 1.97413	 1.18132	        -4146.79	         3945.62	        -201.175
      69	 1.97951	 1.16615	        -4157.53	         3956.36	        -201.176
      70	 1.98524	 1.15015	        -4169.01	         3967.81	        -201.195
      71	   1.991	  1.1345	        -4180.55	          3979.3	        -201.249
      72	  1.9962	 1.12104	        -4191.03	         3989.69	        -201.335
      73	  2.0001	 1.11217	        -4198.91	         3997.47	        -201.432
      74	 2.00186	 1.11036	        -4202.54	         4000.99	        -201.548
      75	 2.00064	 1.11805	         -4200.2	         3998.55	        -201.651
      76	 1.99589	 1.13677	         -4190.7	         3989.07	        -201.632
      77	 1.98805	 1.16511	        -4174.86	         3973.42	        -201.434
      78	 1.97879	 1.19791	        -4156.11	         3954.93	        -201.187
      79	 1.97008	 1.22896	        -4138.63	         3937.54	        -201.091
      80	   1.963	 1.25487	        -4124.56	         3923.41	        -201.153
      81	 1.95759	 1.27542	        -4113.82	          3912.6	        -201.223
      82	 1.95364	 1.29097	        -4105.98	         3904.72	         -201.26
      83	 1.95109	  1.3015	        -4100.94	         3899.63	        -201.311
      84	 1.94986	 1.30719	         -4098.5	         3897.17	        -201.327
      85	 1.95009	 1.30769	         -4098.9	         3897.62	        -201.277
      86	 1.95212	  1.3019	        -4102.98	         3901.68	          -201.3
      87	 1.95574	 1.29053	        -4110.38	          3908.9	         -201.48
      88	 1.95965	 1.27753	        -4118.44	         3916.73	         -201.71
      89	 1.96217	 1.26803	        -4123.63	         3921.75	        -201.877
      90	   1.962	 1.26583	        -4123.33	         3921.41	        -201.927
      91	 1.95878	 1.27197	         -4116.8	         3914.98	        -201.819
      92	  1.9534	 1.28387	        -4105.78	         3904.25	        -201.529
      93	 1.94806	 1.29512	        -4094.72	         3893.59	        -201.134
      94	 1.94554	 1.29749	         -4089.4	         3888.55	        -200.858
      95	  1.9477	 1.28556	        -4093.72	         3892.85	        -200.862
      96	 1.95439	 1.25998	        -4107.31	         3906.21	        -201.103
      97	 1.96369	 1.22664	        -4126.19	         3924.78	        -201.418
      98	 1.97305	 1.19327	        -4145.12	         3943.46	        -201.655
      99	 1.98048	 1.16598	        -4160.02	          3958.3	        -201.723
     100	 1.98525	 1.14712	        -4169.47	         3967.83	        -201.643
     101	 1.98771	 1.13572	        -4174.31	         3972.74	        -201.569
     102	  1.9884	 1.13024	        -4175.65	         3974.11	         -201.54
     103	 1.98778	 1.12943	         -4174.3	         3972.88	        -201.418
     104	 1.98685	  1.1303	        -4172.26	         3971.03	        -201.232
     105	 1.98687	 1.12888	        -4172.24	         3971.07	        -201.168
     106	 1.98833	 1.12361	        -4175.25	         3973.98	        -201.271
     107	 1.99063	 1.11625	        -4179.98	         3978.57	        -201.416
     108	  1.9928	 1.10963	         -4184.4	          3982.9	        -201.494
     109	 1.99427	 1.10542	        -4187.35	         3985.84	        -201.509
     110	 1.99484	 1.10416	        -4188.52	         3986.98	        -201.545
     111	 1.99427	 1.10661	        -4187.43	         3985.83	        -201.597
     112	 1.99225	 1.11373	        -4183.39	          3981.8	        -201.588
     113	 1.98882	  1.1253	         -4176.5	         3974.96	        -201.533
     114	 1.98436	 1.14009	        -4167.52	         3966.05	        -201.469
     115	  1.9794	 1.15635	        -4157.53	         3956.15	        -201.373
     116	 1.97475	 1.17158	         -4148.1	         3946.86	         -201.24
     117	 1.97146	 1.18252	        -4141.41	          3940.3	        -201.109
     118	 1.97053	 1.18612	        -4139.51	         3938.44	        -201.063
     119	 1.97226	 1.18141	         -4143.1	          3941.9	        -201.201
     120	 1.97565	 1.17132	        -4150.16	         3948.66	          -201.5
     121	 1.97865	   1.162	        -4156.41	         3954.65	        -201.751
     122	 1.97955	 1.15866	        -4158.23	         3956.45	         -201.78
     123	 1.97819	 1.16189	        -4155.32	         3953.72	        -201.591
     124	 1.97589	 1.16782	        -4150.51	         3949.14	        -201.371
     125	 1.97421	 1.17188	        -4147.11	         3945.78	        -201.331
     126	 1.97355	 1.17291	        -4145.91	         3944.47	        -201.436
     127	  1.9733	 1.17278	        -4145.51	         3943.97	        -201.532
     128	 1.97278	 1.17343	        -4144.48	         3942.93	        -201.543
     129	 1.97185	 1.17517	        -4142.58	         3941.08	          -201.5
     130	 1.97082	 1.17705	        -4140.47	         3939.02	        -201.459
     131	 1.97003	 1.17802	        -4138.88	         3937.43	        -201.446
     132	 1.96968	 1.17753	        -4138.16	         3936.74	        -201.425
     133	 1.96996	 1.17506	        -4138.68	          3937.3	        -201.378
     134	 1.97112	 1.16985	        -4140.97	         3939.62	        -201.347
     135	  1.9733	 1.16157	        -4145.29	         3943.96	        -201.326
     136	  1.9765	 1.15026	        -4151.65	         3950.35	        -201.298
     137	 1.98069	 1.13609	        -4160.02	         3958.73	        -201.291
     138	 1.98566	  1.1198	        -4169.97	         3968.65	        -201.324
     139	 1.99087	 1.10305	        -4180.44	         3979.05	        -201.388
     140	 1.99559	 1.08811	        -4189.93	         3988.48	        -201.448
     141	 1.99912	 1.07714	           -4197	         3995.53	        -201.477
     142	 2.00101	 1.07154	        -4200.76	         3999.28	        -201.474
     143	 2.00106	 1.07182	        -4200.85	         3999.39	         -201.46
     144	 1.99927	 1.07791	        -4197.27	         3995.82	        -201.446
     145	 1.99576	  1.0894	        -4190.23	         3988.81	        -201.421
     146	 1.99081	 1.10524	         -4180.3	         3978.93	        -201.366
     147	 1.98502	  1.1235	        -4168.63	         3967.37	        -201.266
     148	 1.97932	  1.1412	        -4157.13	         3955.99	         -201.14
     149	 1.97481	 1.15492	        -4148.02	         3946.98	        -201.042
     150	 1.97234	 1.16198	        -4143.07	         3942.06	        -201.017
     151	  1.9722	 1.16147	        -4142.85	         3941.77	        -201.083
     152	 1.97393	 1.15467	        -4146.47	         3945.23	        -201.242
     153	  1.9764	 1.14497	         -4151.6	         3950.16	        -201.443
     154	 1.97822	 1.13657	        -4155.37	         3953.79	         -201.58
     155	 1.97844	 1.13243	        -4155.81	         3954.22	        -201.587
     156	 1.97698	 1.13281	        -4152.84	         3951.32	        -201.515
     157	 1.97436	 1.13627	        -4147.54	         3946.08	         -201.46
     158	 1.97112	 1.14128	        -4141.03	         3939.62	        -201.406
     159	 1.96793	 1.14601	        -4134.53	         3933.25	        -201.276
     160	 1.96587	 1.14731	        -4130.26	         3929.13	        -201.125
     161	 1.96605	 1.14187	        -4130.58	          3929.5	         -201.08
     162	 1.96883	 1.12873	        -4136.23	         3935.04	        -201.184
     163	 1.97344	 1.11026	        -4145.63	         3944.24	         -201.39
     164	  1.9784	 1.09102	         -4155.7	         3954.14	        -201.557
     165	 1.98243	 1.07497	        -4163.81	          3962.2	        -201.605
     166	 1.98509	 1.06366	        -4169.07	          3967.5	        -201.564
     167	 1.98658	 1.05665	        -4171.98	         3970.48	        -201.503
     168	  1.9873	  1.0529	        -4173.43	         3971.91	        -201.513
     169	 1.98719	 1.05265	        -4173.31	         3971.69	        -201.615
     170	 1.98563	 1.05774	        -4170.29	         3968.59	          -201.7
     171	 1.98213	 1.06957	        -4163.28	          3961.6	        -201.672
     172	 1.97692	 1.08727	        -4152.74	         3951.19	        -201.543
     173	 1.97093	  1.1078	        -4140.63	         3939.24	        -201.395
     174	 1.96532	 1.12751	        -4129.32	         3928.04	        -201.283
     175	 1.96103	 1.14342	        -4120.69	         3919.47	        -201.212
     176	 1.95866	 1.15355	        -4115.93	         3914.74	        -201.197
     177	 1.95832	 1.15736	        -4115.33	         3914.06	        -201.262
     178	 1.95955	 1.15615	        -4117.91	         3916.52	        -201.389
     179	  1.9614	 1.15266	        -4121.75	         3920.21	        -201.536
     180	 1.96277	 1.15014	         -4124.6	         3922.96	        -201.646
     181	 1.96288	 1.15102	        -4124.82	         3923.17	         -201.65
     182	 1.96168	 1.15556	         -4122.3	         3920.76	        -201.536
     183	 1.95989	 1.16165	        -4118.59	          3917.2	        -201.384
     184	 1.95855	  1.1664	         -4115.8	         3914.52	        -201.286
     185	 1.95828	 1.16801	        -4115.25	         3913.97	        -201.274
     186	 1.95912	 1.16647	        -4116.98	         3915.65	        -201.326
     187	 1.96062	 1.16311	        -4120.08	         3918.66	        -201.416
     188	 1.96208	 1.16003	         -4123.1	         3921.57	        -201.528
     189	 1.96269	 1.15956	        -4124.41	         3922.78	        -201.624
     190	 1.96186	 1.16341	        -4122.77	         3921.13	        -201.641
     191	 1.95962	 1.17142	        -4118.21	         3916.65	        -201.554
     192	  1.9567	 1.18128	        -4112.25	         3910.82	        -201.427
     193	 1.95409	 1.18987	        -4106.96	         3905.62	        -201.344
     194	 1.95251	 1.19494	        -4103.77	         3902.46	         -201.31
     195	 1.95226	 1.19546	        -4103.25	         3901.95	        -201.294
     196	 1.95339	 1.19116	         -4105.5	         3904.21	        -201.286
     197	  1.9558	 1.18228	        -4110.31	         3909.02	        -201.287
     198	 1.95927	 1.16946	        -4117.25	         3915.95	          -201.3
     199	 1.96346	 1.15373	        -4125.64	         3924.32	         -201.33
     200	 1.96793	 1.13642	        -4134.63	         3933.26	        -201.373
     201	 1.97223	 1.11901	        -4143.24	         3941.83	        -201.408
     202	   1.976	 1.10264	        -4150.77	         3949.36	        -201.412
     203	 1.97914	 1.08766	        -4157.03	         3955.64	        -201.396
     204	 1.98178	 1.07386	        -4162.27	         3960.89	        -201.372
     205	 1.98415	 1.06062	        -4166.94	         3965.63	        -201.318
     206	 1.98676	 1.04664	        -4172.05	         3970.84	        -201.211
     207	 1.99038	  1.0298	         -4179.2	         3978.07	        -201.122
     208	 1.99554	 1.00865	        -4189.53	         3988.36	        -201.161
     209	 2.00186	0.984465	         -4202.3	         4000.98	        -201.314
     210	 2.00816	0.960936	        -4215.05	         4013.57	        -201.478
     211	 2.01315	0.942069	        -4225.12	         4023.53	        -201.586
     212	 2.01593	0.930591	        -4230.71	         4029.09	        -201.627
     213	 2.01625	0.927402	         -4231.3	         4029.72	        -201.581
     214	 2.01467	0.931065	        -4227.95	         4026.55	        -201.392
     215	 2.01273	0.937171	        -4223.84	         4022.69	        -201.158
     216	   2.012	0.940941	        -4222.42	         4021.24	        -201.181
     217	 2.01244	0.942586	        -4223.48	         4022.11	        -201.374
     218	 2.01276	0.945976	        -4224.23	         4022.76	        -201.476
     219	 2.01201	0.953772	        -4222.73	         4021.24	         -201.49
     220	 2.00982	0.966792	        -4218.39	         4016.89	        -201.499
     221	 2.00606	0.985343	        -4210.91	         4009.37	        -201.538
     222	 2.00049	  1.0099	        -4199.82	         3998.25	        -201.575
     223	 1.99305	 1.04044	        -4184.94	          3983.4	        -201.538
     224	 1.98426	 1.07516	        -4167.26	         3965.85	        -201.406
     225	 1.97531	 1.11026	        -4149.23	         3947.98	         -201.25
     226	 1.96756	 1.14136	        -4133.67	         3932.52	        -201.158
     227	 1.96203	 1.16531	        -4122.58	         3921.47	        -201.107
     228	 1.95939	  1.1801	        -4117.23	         3916.19	        -201.042
     229	 1.96012	  1.1842	        -4118.69	         3917.65	        -201.043
     230	 1.96409	 1.17801	        -4126.78	         3925.59	        -201.192
     231	 1.97009	 1.16527	           -4139	         3937.55	        -201.448
     232	 1.97609	 1.15202	        -4151.23	         3949.55	        -201.684
     233	 1.98029	  1.1438	        -4159.67	         3957.92	         -201.75
     234	 1.98204	 1.14254	        -4163.04	         3961.42	        -201.616
     235	 1.98213	 1.14592	        -4163.01	          3961.6	        -201.408
     236	 1.98192	 1.14981	        -4162.47	         3961.18	        -201.288
     237	 1.98223	 1.15164	        -4163.14	          3961.8	        -201.343
     238	 1.98275	 1.15217	        -4164.32	         3962.83	        -201.494
     239	 1.98258	 1.15394	        -4164.04	          3962.5	        -201.541
     240	 1.98152	 1.15754	        -4161.78	         3960.39	        -201.388
     241	 1.98059	  1.1599	        -4159.69	         3958.52	        -201.168
     242	 1.98116	 1.15687	        -4160.75	         3959.65	          -201.1
     243	 1.98363	 1.14742	        -4165.79	         3964.58	        -201.204
     244	 1.98725	 1.13403	        -4173.11	         3971.81	        -201.297
     245	  1.9912	 1.11929	        -4180.99	          3979.7	        -201.284
     246	  1.9953	 1.10389	        -4189.11	          3987.9	        -201.212
     247	 1.99983	 1.08721	        -4198.09	         3996.94	        -201.157
     248	 2.00499	  1.0689	         -4208.4	         4007.24	         -201.16
     249	 2.01062	 1.04967	        -4219.69	         4018.47	        -201.216
     250	 2.01616	  1.0313	        -4230.85	         4029.53	        -201.318
     251	 2.02076	  1.0164	        -4240.17	         4038.72	        -201.446
     252	  2.0235	 1.00776	        -4245.73	         4044.19	        -201.536
     253	  2.0238	 1.00708	        -4246.33	         4044.79	        -201.543
     254	 2.02167	 1.01419	        -4242.04	         4040.53	         -201.51
