    Step 	 temperature 	 pressure 	 Potential Energy 	 Kinetic Energy 	 Sum Energy

       0	 2.17063	-1.55462	        -3415.21	         3259.48	        -155.734
       1	 2.17071	-1.55136	        -3415.35	          3259.6	         -155.75
       2	  2.1709	-1.54141	        -3415.65	         3259.88	        -155.769
       3	 2.17104	 -1.5243	        -3415.88	         3260.08	        -155.803
       4	 2.17084	-1.49923	        -3415.64	         3259.79	        -155.854
       5	  2.1699	-1.46495	         -3414.3	         3258.38	        -155.927
       6	 2.16763	-1.41979	           -3411	         3254.97	        -156.025
       7	 2.16325	-1.36149	        -3404.55	          3248.4	        -156.153
       8	 2.15574	-1.28726	        -3393.45	         3237.14	        -156.313
       9	 2.14388	-1.19378	        -3375.85	         3219.35	        -156.501
      10	 2.12629	-1.07752	        -3349.66	         3192.96	        -156.696
      11	 2.10169	-0.935393	        -3312.92	         3156.06	        -156.856
      12	  2.0693	-0.766029	         -3264.4	         3107.48	        -156.923
      13	  2.0294	-0.571332	        -3204.46	         3047.62	        -156.842
      14	 1.98372	-0.357734	        -3135.71	         2979.11	          -156.6
      15	 1.93556	-0.13622	         -3063.1	         2906.86	        -156.243
      16	 1.88917	0.0792838	        -2993.14	         2837.27	        -155.867
      17	 1.84881	0.274966	        -2932.33	         2776.74	        -155.591
      18	  1.8176	0.440588	        -2885.42	         2729.93	        -155.487
      19	 1.79683	0.571541	         -2854.3	         2698.76	        -155.539
      20	 1.78606	0.668541	        -2838.29	         2682.61	        -155.683
      21	 1.78377	 0.73578	        -2835.04	         2679.19	        -155.855
      22	 1.78802	0.779012	        -2841.57	         2685.55	        -156.023
      23	 1.79676	0.804349	        -2854.84	         2698.66	        -156.179
      24	 1.80812	0.817662	        -2872.01	          2715.7	        -156.314
      25	 1.82048	0.824118	        -2890.66	         2734.25	        -156.411
      26	 1.83271	0.827577	        -2909.03	         2752.59	        -156.449
      27	 1.84428	 0.83002	        -2926.38	         2769.95	        -156.429
      28	 1.85527	0.831677	        -2942.83	         2786.43	        -156.405
      29	  1.8658	0.832478	        -2958.67	         2802.22	        -156.452
      30	 1.87546	0.833912	        -2973.29	         2816.72	        -156.573
      31	 1.88337	0.838923	        -2985.25	         2828.59	        -156.659
      32	 1.88908	0.849145	        -2993.75	         2837.15	        -156.594
      33	 1.89347	0.862176	        -3000.16	         2843.73	         -156.43
      34	 1.89813	0.873263	         -3007.1	         2850.71	        -156.381
      35	 1.90373	0.880529	        -3015.57	         2859.11	        -156.459
      36	 1.90983	 0.88548	        -3024.78	         2868.26	        -156.517
      37	 1.91594	0.889509	        -3033.98	         2877.44	        -156.537
      38	 1.92192	0.893032	        -3042.96	          2886.4	         -156.56
      39	 1.92768	 0.89628	        -3051.62	         2895.04	        -156.577
      40	  1.9333	0.899135	        -3060.02	         2903.47	         -156.55
      41	  1.9392	0.900433	        -3068.82	         2912.33	        -156.491
      42	 1.94596	0.898468	        -3078.95	         2922.47	        -156.477
      43	  1.9537	0.892958	        -3090.63	         2934.08	        -156.547
      44	 1.96177	0.885957	        -3102.83	         2946.19	        -156.648
      45	 1.96917	0.880563	           -3114	         2957.28	        -156.723
      46	 1.97507	0.879298	        -3122.89	         2966.13	        -156.753
      47	 1.97912	0.883379	        -3128.95	         2972.21	         -156.74
      48	  1.9814	0.892708	        -3132.33	         2975.62	        -156.707
      49	 1.98221	0.906418	        -3133.52	         2976.84	        -156.685
      50	 1.98185	0.923654	           -3133	         2976.31	        -156.695
      51	 1.98043	0.944089	         -3130.9	         2974.17	        -156.728
      52	 1.97795	0.967618	        -3127.18	         2970.45	        -156.735
      53	 1.97473	0.993221	         -3122.3	         2965.63	        -156.672
      54	 1.97169	  1.0181	        -3117.63	         2961.06	         -156.58
      55	 1.96985	 1.03895	        -3114.85	         2958.29	        -156.559
      56	 1.96957	 1.05454	        -3114.51	         2957.88	         -156.63
      57	 1.97031	  1.0663	        -3115.73	         2958.99	        -156.748
      58	 1.97103	  1.0771	        -3116.92	         2960.06	         -156.86
      59	 1.97081	 1.08957	        -3116.63	         2959.74	         -156.89
      60	 1.96954	 1.10405	        -3114.64	         2957.84	        -156.803
      61	  1.9681	 1.11795	        -3112.37	         2955.68	        -156.696
      62	 1.96753	 1.12817	        -3111.49	         2954.81	        -156.673
      63	  1.9682	 1.13374	        -3112.52	         2955.82	        -156.693
      64	 1.97001	 1.13512	        -3115.25	         2958.54	        -156.709
      65	 1.97268	 1.13312	        -3119.31	         2962.54	        -156.765
      66	 1.97553	  1.1297	        -3123.69	         2966.82	        -156.867
      67	 1.97759	 1.12787	        -3126.85	         2969.91	        -156.935
      68	 1.97815	 1.12975	        -3127.69	         2970.75	        -156.938
      69	 1.97711	 1.13565	         -3126.1	         2969.19	        -156.905
      70	 1.97483	 1.14459	        -3122.62	         2965.77	        -156.846
      71	 1.97196	 1.15475	        -3118.26	         2961.47	        -156.794
      72	 1.96911	 1.16433	           -3114	          2957.2	        -156.806
      73	 1.96641	 1.17298	        -3110.02	         2953.14	        -156.877
      74	 1.96351	 1.18166	        -3105.75	         2948.79	        -156.956
      75	    1.96	 1.19143	        -3100.53	         2943.52	        -157.012
      76	 1.95575	 1.20244	        -3094.14	         2937.15	        -156.985
      77	 1.95152	  1.2124	        -3087.63	         2930.81	        -156.818
      78	  1.9492	 1.21561	        -3083.91	         2927.32	         -156.59
      79	 1.95096	 1.20549	        -3086.46	         2929.96	        -156.493
      80	 1.95767	 1.17958	        -3096.64	         2940.04	        -156.608
      81	 1.96816	 1.14171	        -3112.59	         2955.76	        -156.827
      82	 1.98006	 1.09921	        -3130.63	         2973.62	        -157.015
      83	  1.9912	 1.05895	        -3147.43	         2990.33	        -157.103
      84	 2.00036	 1.02491	        -3161.15	         3004.07	        -157.085
      85	 2.00736	0.997988	        -3171.59	         3014.56	        -157.024
      86	 2.01258	0.977347	        -3179.35	          3022.4	        -156.951
      87	  2.0166	0.961525	        -3185.31	         3028.43	        -156.879
      88	 2.01989	0.949141	        -3190.24	         3033.36	        -156.881
      89	 2.02225	0.940694	        -3193.85	          3036.9	        -156.956
      90	 2.02296	0.938314	        -3194.92	         3037.96	        -156.956
      91	 2.02186	0.942338	        -3193.16	         3036.31	        -156.851
      92	  2.0196	0.950528	        -3189.69	         3032.93	        -156.764
      93	 2.01683	0.960798	         -3185.5	         3028.77	         -156.73
      94	 2.01382	0.972219	        -3180.96	         3024.26	        -156.703
      95	 2.01077	0.984059	        -3176.35	         3019.68	         -156.67
      96	 2.00795	0.995378	         -3172.1	         3015.45	        -156.645
      97	  2.0056	 1.00541	        -3168.57	         3011.92	        -156.646
      98	 2.00374	 1.01401	         -3165.8	         3009.14	        -156.664
      99	 2.00229	  1.0215	        -3163.63	         3006.95	        -156.673
     100	 2.00114	 1.02813	        -3161.91	         3005.24	        -156.672
     101	 2.00024	 1.03405	        -3160.58	         3003.89	        -156.691
     102	 1.99932	 1.03997	        -3159.25	         3002.51	        -156.737
     103	 1.99793	  1.0472	        -3157.19	         3000.42	        -156.769
     104	 1.99577	 1.05656	        -3153.92	         2997.18	        -156.742
     105	  1.9931	 1.06719	        -3149.82	         2993.17	        -156.645
     106	 1.99084	 1.07628	         -3146.3	         2989.78	        -156.517
     107	 1.99018	 1.08026	        -3145.22	         2988.79	        -156.426
     108	 1.99197	 1.07662	         -3147.9	         2991.48	        -156.421
     109	 1.99626	  1.0653	        -3154.42	         2997.91	        -156.506
     110	 2.00224	 1.04876	        -3163.51	         3006.88	        -156.634
     111	  2.0087	 1.03074	        -3173.31	         3016.57	        -156.742
     112	 2.01459	 1.01451	         -3182.2	         3025.42	        -156.782
     113	  2.0195	 1.00153	        -3189.54	         3032.77	        -156.765
     114	 2.02347	0.991739	        -3195.49	         3038.73	        -156.769
     115	 2.02644	0.985427	        -3200.03	         3043.18	        -156.849
     116	 2.02778	0.984555	        -3202.15	          3045.2	        -156.955
     117	 2.02679	0.991369	        -3200.67	         3043.72	        -156.956
     118	 2.02372	 1.00526	        -3195.93	         3039.11	        -156.817
     119	 2.01984	  1.0223	        -3190.03	         3033.29	        -156.735
     120	 2.01589	 1.04017	         -3184.2	         3027.36	        -156.838
     121	 2.01112	 1.06106	        -3177.18	         3020.21	        -156.973
     122	 2.00439	 1.08822	        -3167.13	         3010.11	        -157.017
     123	 1.99534	 1.12242	        -3153.49	         2996.54	        -156.958
     124	 1.98463	 1.16141	        -3137.31	         2980.47	        -156.838
     125	  1.9736	 1.20101	        -3120.62	         2963.92	        -156.699
     126	 1.96378	  1.2364	        -3105.79	          2949.2	        -156.585
     127	  1.9565	  1.2635	        -3094.81	         2938.27	        -156.539
     128	 1.95238	 1.28024	        -3088.67	         2932.09	        -156.578
     129	  1.9512	 1.28708	        -3087.03	         2930.33	        -156.696
     130	 1.95196	 1.28692	        -3088.31	         2931.46	        -156.852
     131	 1.95326	 1.28377	        -3090.36	         2933.41	        -156.948
     132	 1.95424	  1.2802	         -3091.8	         2934.89	        -156.918
     133	 1.95511	 1.27559	        -3092.98	         2936.19	        -156.791
     134	 1.95689	 1.26693	        -3095.51	         2938.85	         -156.66
     135	 1.96061	 1.25123	        -3101.03	         2944.44	        -156.593
     136	 1.96669	 1.22738	        -3110.16	         2953.56	          -156.6
     137	 1.97482	 1.19652	         -3122.4	         2965.75	         -156.65
     138	 1.98422	 1.16114	        -3136.56	         2979.85	        -156.709
     139	 1.99402	 1.12412	        -3151.32	         2994.55	        -156.768
     140	 2.00336	 1.08825	         -3165.4	         3008.57	         -156.83
     141	 2.01148	 1.05615	        -3177.64	         3020.75	        -156.887
     142	 2.01773	 1.03001	        -3187.05	         3030.13	        -156.925
     143	 2.02175	 1.01115	        -3193.08	         3036.15	         -156.93
     144	 2.02352	0.999735	        -3195.72	         3038.81	        -156.913
     145	 2.02331	0.995049	         -3195.4	         3038.49	        -156.911
     146	 2.02132	0.996403	        -3192.44	          3035.5	         -156.94
     147	 2.01765	 1.00342	        -3186.95	            3030	        -156.946
     148	 2.01274	 1.01476	         -3179.5	         3022.64	        -156.865
     149	 2.00782	  1.0267	        -3171.98	         3015.26	        -156.718
     150	 2.00453	  1.0342	        -3166.99	         3010.32	        -156.663
     151	 2.00349	 1.03517	        -3165.59	         3008.76	        -156.831
     152	  2.0034	 1.03344	        -3165.68	         3008.62	        -157.062
     153	 2.00236	 1.03469	        -3164.16	         3007.06	        -157.101
     154	 1.99998	 1.03998	        -3160.45	          3003.5	        -156.944
     155	  1.9975	 1.04549	        -3156.59	         2999.78	        -156.807
     156	 1.99613	 1.04765	         -3154.5	         2997.71	        -156.783
     157	 1.99609	 1.04588	        -3154.49	         2997.66	        -156.828
     158	 1.99684	 1.04177	        -3155.72	         2998.78	        -156.938
     159	 1.99726	 1.03857	        -3156.48	         2999.42	        -157.053
     160	 1.99639	 1.03936	        -3155.15	         2998.12	        -157.033
     161	 1.99439	 1.04375	           -3152	         2995.11	        -156.881
     162	 1.99234	 1.04836	        -3148.86	         2992.03	        -156.824
     163	 1.99055	 1.05216	        -3146.26	         2989.35	        -156.905
     164	 1.98825	 1.05754	        -3142.84	          2985.9	        -156.945
     165	 1.98487	 1.06601	        -3137.73	         2980.84	        -156.891
     166	 1.98074	 1.07648	        -3131.43	         2974.64	        -156.792
     167	 1.97672	 1.08631	         -3125.3	          2968.6	        -156.702
     168	 1.97368	 1.09286	        -3120.71	         2964.05	        -156.662
     169	  1.9721	 1.09472	        -3118.35	         2961.68	        -156.673
     170	 1.97203	 1.09178	        -3118.25	         2961.56	        -156.686
     171	 1.97343	 1.08415	        -3120.33	         2963.67	        -156.663
     172	 1.97654	 1.07128	        -3124.95	         2968.33	        -156.619
     173	  1.9816	 1.05252	        -3132.57	         2975.92	        -156.651
     174	 1.98811	 1.02944	         -3142.5	         2985.69	        -156.815
     175	 1.99447	 1.00699	        -3152.23	         2995.23	        -156.996
     176	 1.99901	0.990433	        -3159.07	         3002.04	        -157.024
     177	 2.00136	 0.98099	        -3162.46	         3005.57	         -156.89
     178	 2.00257	0.975576	        -3164.13	         3007.38	        -156.745
     179	 2.00386	 0.97059	        -3166.04	         3009.32	        -156.718
     180	 2.00552	0.965273	        -3168.59	         3011.81	        -156.781
     181	 2.00703	0.961218	        -3170.89	         3014.06	        -156.828
     182	 2.00792	0.959758	         -3172.2	          3015.4	        -156.804
     183	 2.00831	0.960507	        -3172.73	         3015.98	        -156.743
     184	 2.00863	 0.96208	        -3173.19	         3016.47	        -156.717
     185	 2.00907	0.963936	        -3173.89	         3017.13	        -156.758
     186	 2.00927	0.967097	        -3174.25	         3017.44	        -156.815
     187	 2.00877	0.972977	        -3173.52	         3016.68	        -156.847
     188	 2.00728	0.982292	        -3171.32	         3014.45	        -156.865
     189	 2.00476	0.995168	        -3167.54	         3010.66	        -156.882
     190	 2.00121	 1.01141	        -3162.24	         3005.35	        -156.888
     191	 1.99685	 1.03034	        -3155.67	          2998.8	        -156.873
     192	 1.99205	  1.0506	        -3148.45	          2991.6	        -156.842
     193	 1.98736	 1.07041	        -3141.38	         2984.57	        -156.811
     194	 1.98331	 1.08804	        -3135.29	         2978.49	        -156.797
     195	 1.98024	 1.10232	         -3130.7	         2973.89	        -156.806
     196	 1.97825	 1.11292	        -3127.75	         2970.91	        -156.838
     197	 1.97718	  1.1203	        -3126.18	         2969.29	        -156.885
     198	 1.97668	 1.12548	        -3125.47	         2968.55	        -156.927
     199	 1.97644	 1.12944	        -3125.13	         2968.19	        -156.944
     200	 1.97631	 1.13265	        -3124.93	         2967.99	         -156.94
     201	 1.97632	 1.13508	        -3124.92	         2968.01	        -156.918
     202	 1.97664	 1.13628	        -3125.37	         2968.49	        -156.883
     203	 1.97748	 1.13567	        -3126.61	         2969.74	        -156.871
     204	 1.97877	 1.13342	        -3128.59	         2971.68	        -156.914
     205	 1.97998	  1.1311	        -3130.48	          2973.5	        -156.983
     206	 1.98044	 1.13076	        -3131.18	         2974.18	        -156.999
     207	 1.97997	 1.13287	         -3130.4	         2973.49	        -156.918
     208	 1.97927	 1.13533	        -3129.23	         2972.43	        -156.798
     209	 1.97936	   1.135	        -3129.29	         2972.56	        -156.734
     210	 1.98075	  1.1303	        -3131.42	         2974.65	        -156.771
     211	 1.98303	 1.12247	        -3134.95	         2978.07	        -156.872
     212	  1.9852	 1.11458	        -3138.26	         2981.32	        -156.931
     213	 1.98655	 1.10884	        -3140.23	         2983.34	        -156.891
     214	 1.98718	 1.10501	        -3141.09	         2984.29	        -156.796
     215	 1.98772	 1.10135	        -3141.82	          2985.1	        -156.719
     216	  1.9887	 1.09642	        -3143.26	         2986.57	        -156.689
     217	 1.99025	  1.0899	         -3145.6	          2988.9	        -156.701
     218	 1.99216	 1.08251	         -3148.5	         2991.77	        -156.737
     219	 1.99403	 1.07544	        -3151.34	         2994.57	        -156.772
     220	 1.99551	 1.06971	        -3153.57	         2996.79	        -156.779
     221	 1.99655	 1.06545	         -3155.1	         2998.35	        -156.755
     222	 1.99737	 1.06195	        -3156.33	         2999.59	        -156.742
     223	 1.99814	 1.05866	        -3157.51	         3000.74	        -156.773
     224	 1.99874	 1.05598	        -3158.44	         3001.63	        -156.811
     225	 1.99898	 1.05446	        -3158.82	            3002	        -156.824
     226	 1.99881	 1.05423	        -3158.61	         3001.74	        -156.878
     227	 1.99782	  1.0564	        -3157.22	         3000.26	        -156.959
     228	 1.99559	 1.06244	        -3153.81	         2996.91	        -156.893
     229	 1.99282	 1.07023	        -3149.46	         2992.76	        -156.698
     230	 1.99119	 1.07458	        -3146.88	          2990.3	        -156.579
     231	 1.99177	  1.0722	        -3147.78	         2991.18	        -156.595
     232	 1.99445	 1.06348	        -3151.87	          2995.2	        -156.662
     233	 1.99846	 1.05066	        -3157.94	         3001.22	        -156.724
     234	 2.00303	 1.03609	         -3164.8	         3008.06	         -156.74
     235	 2.00778	 1.02101	         -3171.9	          3015.2	        -156.704
     236	 2.01278	 1.00548	        -3179.38	         3022.69	        -156.692
     237	 2.01783	 0.99021	        -3187.06	         3030.27	        -156.792
     238	 2.02185	0.978631	        -3193.27	          3036.3	        -156.967
     239	 2.02319	0.975823	        -3195.41	         3038.32	        -157.095
     240	 2.02065	0.985367	        -3191.61	          3034.5	        -157.111
     241	 2.01413	 1.00741	        -3181.75	         3024.72	        -157.022
     242	 2.00467	 1.03873	         -3167.4	         3010.53	        -156.868
     243	 1.99402	 1.07386	        -3151.26	         2994.55	        -156.702
     244	 1.98411	 1.10677	        -3136.25	         2979.69	        -156.563
     245	 1.97661	 1.13214	        -3124.91	         2968.44	        -156.464
     246	 1.97272	 1.14615	        -3119.03	         2962.61	        -156.427
     247	 1.97287	 1.14722	        -3119.31	         2962.83	        -156.481
     248	 1.97654	 1.13675	        -3124.94	         2968.34	        -156.601
     249	 1.98253	 1.11835	        -3134.04	         2977.33	        -156.714
     250	 1.98957	 1.09591	        -3144.66	         2987.88	        -156.778
     251	 1.99678	 1.07221	         -3155.5	          2998.7	        -156.795
     252	 2.00377	 1.04878	        -3165.97	         3009.18	        -156.788
     253	 2.01036	 1.02643	        -3175.86	         3019.06	        -156.794
     254	  2.0163	  1.0062	        -3184.82	         3027.98	        -156.846
