    Step 	 temperature 	 pressure 	 Potential Energy 	 Kinetic Energy 	 Sum Energy

       0	 2.18107	-1.55538	        -7516.34	         7187.92	        -328.425
       1	 2.18114	-1.55203	        -7516.61	         7188.17	         -328.44
       2	 2.18131	-1.54178	        -7517.22	         7188.74	        -328.487
       3	  2.1814	-1.52411	        -7517.61	         7189.03	        -328.573
       4	  2.1811	-1.49804	        -7516.72	         7188.02	        -328.705
       5	  2.1799	-1.46209	        -7512.98	         7184.09	        -328.894
       6	 2.17713	-1.41424	         -7504.1	         7174.95	        -329.155
       7	 2.17182	-1.35173	        -7486.96	         7157.46	        -329.504
       8	 2.16273	-1.27109	        -7457.45	          7127.5	        -329.949
       9	 2.14832	-1.16814	        -7410.46	         7079.99	        -330.469
      10	 2.12689	-1.03853	        -7340.37	         7009.39	        -330.982
      11	 2.09706	-0.878923	        -7242.39	         6911.07	        -331.317
      12	 2.05843	-0.68917	        -7115.03	         6783.76	        -331.265
      13	 2.01239	-0.474585	        -6962.84	         6632.06	        -330.779
      14	 1.96217	-0.246059	        -6796.61	         6466.54	        -330.069
      15	 1.91188	-0.0171997	        -6630.18	         6300.81	         -329.37
      16	 1.86551	0.198882	        -6476.76	            6148	         -328.76
      17	 1.82639	0.391149	        -6347.39	         6019.07	        -328.318
      18	 1.79677	0.551845	        -6249.62	         5921.46	        -328.155
      19	 1.77747	0.677748	        -6186.16	         5857.87	        -328.283
      20	 1.76788	0.770192	        -6154.87	         5826.27	        -328.601
      21	 1.76641	0.833661	        -6150.39	         5821.41	        -328.979
      22	 1.77112	0.873886	        -6166.24	         5836.95	         -329.29
      23	  1.7804	0.896012	        -6196.96	         5867.52	        -329.445
      24	 1.79317	0.903566	        -6239.19	          5909.6	        -329.587
      25	 1.80836	0.900127	        -6289.61	         5959.65	        -329.961
      26	 1.82414	0.891674	        -6342.06	         6011.66	        -330.394
      27	 1.83852	0.884666	        -6389.69	         6059.06	        -330.636
      28	 1.85034	0.882955	        -6428.66	         6098.01	        -330.654
      29	 1.85952	0.887133	        -6458.78	         6128.25	        -330.527
      30	  1.8667	0.895556	        -6482.32	         6151.93	        -330.388
      31	 1.87271	0.906062	        -6502.02	         6171.72	        -330.302
      32	 1.87817	 0.91695	        -6519.96	         6189.72	        -330.246
      33	 1.88351	0.927009	        -6537.59	         6207.34	         -330.25
      34	 1.88887	0.935877	        -6555.33	         6224.97	        -330.354
      35	 1.89394	0.944392	        -6572.17	         6241.69	        -330.482
      36	 1.89837	 0.95366	        -6586.79	         6256.28	        -330.503
      37	  1.9022	0.963538	         -6599.3	         6268.91	        -330.389
      38	 1.90602	0.972281	        -6611.75	         6281.52	        -330.228
      39	 1.91063	0.977606	        -6626.85	         6296.71	        -330.139
      40	  1.9165	0.978197	        -6646.24	         6316.05	        -330.189
      41	 1.92349	0.974586	        -6669.43	         6339.08	        -330.349
      42	 1.93094	0.968856	        -6694.16	         6363.62	        -330.546
      43	 1.93798	0.963663	        -6717.51	         6386.83	        -330.682
      44	   1.944	0.960958	        -6737.37	         6406.68	        -330.695
      45	 1.94886	0.961222	        -6753.34	         6422.68	        -330.653
      46	 1.95266	0.964138	        -6765.85	         6435.21	        -330.639
      47	  1.9555	 0.96947	         -6775.2	         6444.58	        -330.621
      48	 1.95752	 0.97683	        -6781.79	         6451.23	        -330.562
      49	 1.95901	 0.98533	        -6786.62	         6456.13	        -330.493
      50	  1.9603	0.993944	        -6790.84	         6460.37	        -330.469
      51	 1.96154	 1.00216	        -6794.99	         6464.48	        -330.511
      52	 1.96266	 1.01015	        -6798.73	         6468.17	         -330.56
      53	 1.96354	 1.01819	        -6801.65	         6471.07	        -330.578
      54	  1.9642	  1.0261	        -6803.79	         6473.24	        -330.552
      55	 1.96488	 1.03314	        -6805.93	         6475.48	        -330.451
      56	  1.9661	 1.03773	        -6809.85	         6479.51	         -330.34
      57	 1.96837	 1.03836	        -6817.32	         6486.98	        -330.333
      58	 1.97174	 1.03491	        -6828.53	         6498.07	        -330.455
      59	  1.9757	 1.02894	        -6841.74	         6511.12	        -330.624
      60	  1.9795	 1.02278	        -6854.41	         6523.66	        -330.755
      61	 1.98252	 1.01838	        -6864.45	         6533.62	        -330.831
      62	 1.98438	 1.01694	        -6870.63	         6539.76	        -330.871
      63	 1.98493	 1.01904	        -6872.42	         6541.54	        -330.872
      64	 1.98423	 1.02454	        -6870.07	         6539.24	        -330.822
      65	 1.98265	 1.03244	        -6864.75	         6534.04	        -330.709
      66	 1.98084	 1.04083	        -6858.64	         6528.09	        -330.549
      67	 1.97961	 1.04734	        -6854.47	         6524.02	        -330.446
      68	 1.97947	 1.05037	        -6854.04	         6523.57	        -330.471
      69	 1.98041	 1.04996	        -6857.21	         6526.67	         -330.54
      70	 1.98217	 1.04692	           -6863	         6532.46	        -330.549
      71	 1.98459	 1.04168	        -6870.97	         6540.44	        -330.537
      72	 1.98755	 1.03463	        -6880.78	         6550.17	        -330.607
      73	 1.99061	 1.02708	           -6891	         6560.26	        -330.746
      74	 1.99311	 1.02111	        -6899.37	         6568.51	        -330.856
      75	 1.99452	 1.01837	        -6904.05	         6573.15	        -330.897
      76	 1.99461	 1.01951	        -6904.34	         6573.45	        -330.888
      77	 1.99346	 1.02431	        -6900.48	         6569.65	        -330.824
      78	 1.99143	 1.03168	        -6893.67	         6562.99	        -330.686
      79	  1.9892	 1.03964	        -6886.18	         6555.64	        -330.538
      80	 1.98744	 1.04611	         -6880.3	         6549.82	        -330.481
      81	 1.98648	 1.05006	        -6877.15	         6546.66	        -330.491
      82	 1.98641	 1.05129	        -6876.88	         6546.42	        -330.467
      83	 1.98737	 1.04935	        -6880.02	          6549.6	        -330.419
      84	 1.98955	  1.0437	        -6887.24	         6556.79	        -330.457
      85	 1.99277	 1.03493	        -6898.01	          6567.4	        -330.611
      86	 1.99639	 1.02504	        -6910.12	         6579.33	         -330.79
      87	 1.99963	 1.01644	         -6920.9	         6589.98	        -330.916
      88	 2.00185	 1.01101	        -6928.31	         6597.31	        -331.008
      89	 2.00259	 1.01011	        -6930.84	         6599.74	        -331.102
      90	 2.00148	  1.0148	        -6927.21	         6596.11	        -331.103
      91	 1.99869	 1.02464	        -6917.79	         6586.91	        -330.877
      92	  1.9953	 1.03639	        -6906.23	         6575.72	        -330.504
      93	 1.99295	 1.04508	        -6898.22	         6567.99	        -330.223
      94	 1.99293	  1.0469	        -6898.09	         6567.91	         -330.18
      95	 1.99542	 1.04126	        -6906.49	         6576.13	        -330.366
      96	  1.9996	 1.03061	        -6920.52	         6589.89	        -330.632
      97	 2.00421	 1.01864	        -6935.87	         6605.08	        -330.792
      98	 2.00836	 1.00796	        -6949.56	         6618.77	        -330.792
      99	 2.01185	0.999194	        -6960.95	         6630.26	        -330.685
     100	 2.01494	0.991553	        -6971.04	         6640.44	        -330.595
     101	 2.01783	0.984403	        -6980.64	         6649.98	        -330.663
     102	 2.02018	0.978782	        -6988.55	         6657.73	        -330.819
     103	 2.02139	0.976568	        -6992.55	         6661.71	        -330.839
     104	 2.02139	0.977986	        -6992.35	          6661.7	        -330.655
     105	  2.0209	0.980851	        -6990.54	          6660.1	        -330.432
     106	 2.02082	0.982545	         -6990.2	         6659.81	         -330.39
     107	 2.02129	0.982595	        -6991.92	         6661.37	        -330.547
     108	 2.02168	0.982933	        -6993.41	         6662.67	        -330.735
     109	 2.02117	0.985993	        -6991.81	         6660.98	        -330.834
     110	 2.01926	0.993145	        -6985.51	         6654.67	        -330.838
     111	 2.01592	 1.00438	        -6974.44	         6643.69	        -330.751
     112	 2.01164	 1.01831	        -6960.12	         6629.58	        -330.542
     113	 2.00743	 1.03193	        -6945.95	         6615.71	        -330.242
     114	 2.00463	 1.04127	        -6936.51	         6606.48	        -330.032
     115	 2.00416	 1.04363	        -6934.99	         6604.91	        -330.081
     116	 2.00586	  1.0395	        -6940.85	         6610.52	        -330.332
     117	 2.00871	 1.03206	        -6950.55	         6619.92	        -330.625
     118	 2.01143	 1.02517	        -6959.74	         6628.87	        -330.868
     119	 2.01294	 1.02205	        -6964.86	         6633.85	        -331.016
     120	 2.01265	 1.02453	        -6963.93	         6632.89	        -331.034
     121	 2.01056	 1.03262	        -6956.97	         6626.01	        -330.959
     122	  2.0071	 1.04503	        -6945.49	          6614.6	        -330.888
     123	 2.00274	 1.06028	        -6931.08	         6600.24	        -330.845
     124	 1.99791	 1.07708	        -6915.09	         6584.33	        -330.758
     125	 1.99315	 1.09374	        -6899.29	         6568.64	         -330.65
     126	 1.98899	 1.10855	        -6885.55	         6554.94	        -330.613
     127	 1.98569	  1.1207	        -6874.66	         6544.05	        -330.619
     128	 1.98325	 1.13006	        -6866.66	         6536.03	        -330.635
     129	  1.9816	 1.13678	        -6861.27	         6530.57	        -330.694
     130	 1.98048	 1.14154	        -6857.65	         6526.87	        -330.775
     131	 1.97955	 1.14528	        -6854.66	         6523.82	         -330.84
     132	 1.97853	  1.1488	        -6851.35	         6520.46	        -330.886
     133	 1.97725	 1.15257	        -6847.14	         6516.26	         -330.88
     134	 1.97582	 1.15632	        -6842.32	         6511.53	        -330.783
     135	  1.9747	 1.15869	        -6838.47	         6507.83	        -330.639
     136	 1.97452	 1.15781	        -6837.81	         6507.26	        -330.552
     137	 1.97569	 1.15257	        -6841.67	         6511.09	        -330.581
     138	 1.97807	 1.14337	        -6849.66	         6518.96	        -330.707
     139	 1.98111	 1.13193	        -6859.84	         6528.96	        -330.882
     140	 1.98402	 1.12058	        -6869.56	         6538.55	        -331.009
     141	 1.98628	   1.111	        -6876.96	         6546.02	        -330.947
     142	 1.98812	 1.10264	        -6882.82	         6552.07	        -330.748
     143	 1.99019	 1.09353	         -6889.6	          6558.9	          -330.7
     144	 1.99259	 1.08342	        -6897.68	          6566.8	        -330.876
     145	 1.99462	 1.07455	        -6904.51	         6573.49	        -331.018
     146	 1.99567	 1.06884	         -6907.9	         6576.95	        -330.951
     147	 1.99593	 1.06574	        -6908.56	          6577.8	        -330.757
     148	 1.99611	 1.06318	        -6909.03	          6578.4	        -330.624
     149	 1.99676	 1.05965	        -6911.13	         6580.53	        -330.605
     150	 1.99796	 1.05499	        -6915.12	         6584.49	        -330.633
     151	  1.9995	 1.04983	         -6920.3	         6589.58	        -330.718
     152	 2.00087	 1.04563	        -6924.98	          6594.1	        -330.884
     153	 2.00129	 1.04469	        -6926.45	         6595.46	        -330.993
     154	 2.00021	 1.04856	        -6922.85	          6591.9	        -330.956
     155	 1.99768	 1.05693	        -6914.43	         6583.57	        -330.855
     156	 1.99414	 1.06844	        -6902.65	         6571.89	        -330.761
     157	 1.99008	 1.08148	        -6889.21	         6558.54	        -330.673
     158	 1.98605	  1.0944	        -6875.84	         6545.24	        -330.595
     159	 1.98252	 1.10562	        -6864.17	         6533.61	        -330.556
     160	 1.97982	 1.11408	        -6855.28	          6524.7	        -330.579
     161	 1.97802	 1.11946	        -6849.43	         6518.78	        -330.642
     162	 1.97706	 1.12191	        -6846.31	         6515.63	        -330.677
     163	 1.97696	 1.12135	        -6845.98	          6515.3	        -330.684
     164	  1.9778	 1.11751	        -6848.83	         6518.07	         -330.76
     165	 1.97948	 1.11084	        -6854.42	         6523.59	         -330.83
     166	   1.982	 1.10163	        -6862.62	          6531.9	        -330.714
     167	 1.98573	 1.08884	        -6874.98	         6544.18	        -330.791
     168	 1.99011	 1.07413	        -6889.82	         6558.61	        -331.203
     169	 1.99344	 1.06288	        -6900.94	          6569.6	         -331.34
     170	  1.9948	 1.05779	        -6905.27	         6574.07	        -331.209
     171	 1.99438	 1.05809	         -6903.8	         6572.71	        -331.096
     172	 1.99261	 1.06255	        -6897.95	         6566.86	        -331.091
     173	 1.98957	 1.07084	        -6887.99	         6556.85	         -331.14
     174	 1.98526	 1.08293	        -6873.71	         6542.64	        -331.073
     175	  1.9802	 1.09724	        -6856.73	         6525.97	        -330.766
     176	 1.97578	 1.10952	        -6841.84	         6511.41	        -330.431
     177	 1.97337	 1.11549	        -6833.87	         6503.46	         -330.41
     178	 1.97318	 1.11456	        -6833.39	         6502.82	        -330.564
     179	 1.97466	 1.10847	        -6838.29	         6507.72	        -330.575
     180	 1.97762	 1.09785	        -6847.93	         6517.45	        -330.478
     181	 1.98213	  1.0824	        -6862.84	         6532.33	        -330.509
     182	 1.98782	  1.0634	         -6881.8	         6551.06	        -330.735
     183	 1.99356	 1.04431	        -6900.94	         6569.99	        -330.956
     184	 1.99825	 1.02854	        -6916.44	         6585.45	         -330.99
     185	 2.00149	 1.01737	           -6927	         6596.13	        -330.872
     186	 2.00352	 1.01012	        -6933.58	         6602.83	        -330.749
     187	  2.0047	 1.00582	        -6937.41	          6606.7	        -330.714
     188	 2.00508	 1.00433	        -6938.72	         6607.95	        -330.773
     189	 2.00441	 1.00639	        -6936.61	         6605.74	        -330.864
     190	 2.00238	 1.01288	        -6929.97	         6599.06	        -330.903
     191	 1.99898	 1.02379	        -6918.68	         6587.84	        -330.841
     192	 1.99465	 1.03767	         -6904.3	         6573.58	        -330.718
     193	 1.99014	 1.05219	        -6889.35	         6558.72	         -330.63
     194	 1.98609	 1.06538	        -6875.99	         6545.37	        -330.616
     195	 1.98285	 1.07613	         -6865.3	         6534.69	        -330.616
     196	 1.98064	 1.08374	           -6858	         6527.42	        -330.579
     197	 1.97975	 1.08736	        -6855.02	         6524.49	        -330.536
     198	 1.98038	 1.08637	        -6857.13	         6526.57	        -330.565
     199	 1.98242	 1.08116	        -6863.95	         6533.28	        -330.671
     200	 1.98547	 1.07303	        -6874.06	         6543.34	        -330.715
     201	 1.98934	 1.06274	        -6886.74	         6556.07	        -330.669
     202	 1.99401	 1.05031	        -6902.22	         6571.48	        -330.738
     203	 1.99904	 1.03716	        -6919.01	         6588.04	        -330.973
     204	 2.00332	 1.02665	        -6933.34	         6602.17	        -331.167
     205	 2.00588	 1.02177	        -6941.82	         6610.61	        -331.217
     206	 2.00633	 1.02365	        -6943.21	         6612.07	        -331.143
     207	 2.00487	 1.03168	        -6938.26	         6607.26	        -330.995
     208	 2.00209	 1.04409	        -6928.99	         6598.12	        -330.875
     209	 1.99853	 1.05923	        -6917.26	         6586.38	        -330.879
     210	 1.99431	 1.07662	        -6903.42	         6572.45	         -330.97
     211	 1.98928	 1.09658	         -6886.9	         6555.88	        -331.018
     212	 1.98345	 1.11888	        -6867.71	         6536.68	        -331.037
     213	 1.97695	 1.14287	        -6846.36	         6515.25	        -331.115
     214	 1.96987	 1.16814	        -6823.01	         6491.92	        -331.087
     215	 1.96286	 1.19277	        -6799.61	         6468.83	         -330.78
     216	 1.95742	 1.21207	        -6781.44	         6450.89	         -330.55
     217	 1.95474	 1.22244	        -6772.59	         6442.06	        -330.526
     218	 1.95514	 1.22309	        -6773.88	         6443.37	         -330.51
     219	 1.95853	 1.21423	        -6785.09	         6454.54	        -330.553
     220	 1.96444	 1.19728	        -6804.77	         6474.04	        -330.728
     221	 1.97183	 1.17545	         -6829.4	         6498.37	        -331.029
     222	 1.97928	  1.1532	         -6854.1	         6522.93	        -331.173
     223	 1.98599	 1.13316	        -6876.18	         6545.04	        -331.131
     224	 1.99165	 1.11614	        -6895.01	         6563.71	        -331.298
     225	 1.99547	 1.10477	         -6907.7	         6576.29	        -331.416
     226	 1.99681	 1.10101	           -6912	         6580.71	        -331.286
     227	 1.99601	 1.10376	        -6909.16	         6578.06	        -331.101
     228	 1.99383	 1.11064	        -6901.85	         6570.88	        -330.969
     229	 1.99101	 1.11945	        -6892.45	          6561.6	        -330.855
     230	  1.9883	 1.12798	        -6883.34	         6552.65	        -330.685
     231	 1.98662	 1.13344	        -6877.62	         6547.13	        -330.486
     232	 1.98685	 1.13314	        -6878.38	         6547.87	        -330.512
     233	 1.98878	 1.12753	        -6885.16	         6554.25	        -330.902
     234	 1.99082	 1.12141	        -6892.32	         6560.97	         -331.35
     235	 1.99107	 1.12043	         -6893.3	         6561.77	        -331.522
     236	 1.98873	 1.12689	        -6885.42	         6554.06	        -331.356
     237	 1.98453	 1.13867	        -6871.17	         6540.22	        -330.952
     238	 1.98026	 1.15053	        -6856.69	         6526.15	        -330.539
     239	 1.97772	 1.15714	        -6848.17	         6517.78	        -330.395
     240	  1.9776	 1.15647	        -6847.96	         6517.39	        -330.573
     241	 1.97927	  1.1505	        -6853.72	         6522.89	        -330.837
     242	 1.98162	 1.14258	        -6861.61	         6530.66	        -330.953
     243	 1.98406	 1.13456	        -6869.58	         6538.67	        -330.905
     244	  1.9866	 1.12638	        -6877.88	         6547.06	        -330.819
     245	 1.98948	 1.11745	        -6887.38	         6556.55	        -330.832
     246	 1.99258	 1.10818	        -6897.72	         6566.76	        -330.958
     247	 1.99538	 1.10019	        -6907.08	            6576	        -331.076
     248	 1.99741	 1.09501	        -6913.76	         6582.67	        -331.092
     249	 1.99851	 1.09307	        -6917.38	          6586.3	        -331.077
     250	 1.99864	 1.09449	         -6917.9	         6586.74	        -331.155
     251	 1.99746	 1.10036	        -6914.14	         6582.86	        -331.283
     252	 1.99449	 1.11216	        -6904.38	         6573.07	        -331.311
     253	 1.98969	 1.13002	         -6888.4	         6557.23	        -331.173
     254	 1.98364	 1.15211	        -6868.31	         6537.29	        -331.015
